Sample	 
Comments	 
Filename	C:\Data\西出研\梅木\20211102オペ\LiFTFSI_03_0001_0099-4_C_2θ.raw
Goniometer	SmartLab(In-plane)
Attachment	標準Zステージ
Monochromater	None
X	0
Y	0
Z	0.00908
ScanningMode	2Theta
ScanningType	Continuos Scanning
X-Ray	40kV/30mA
入射スリット	0.300mm
受光スリット1	20.000mm
受光スリット2	20.000mm
None	
Start	5
Stop	60
Step	0.02
Speed	21.6746
Theta	0
5	3811.11
5.02	3413.75
5.04	3269.25
5.06	3522.12
5.08	3088.63
5.1	3702.74
5.12	3197
5.14	3431.81
5.16	3485.99
5.18	3178.94
5.2	3558.24
5.22	3377.62
5.24	3070.56
5.26	3576.31
5.28	3269.25
5.3	3540.18
5.32	3197
5.34	3142.81
5.36	3233.12
5.38	3269.25
5.4	2980.25
5.42	3774.99
5.44	3467.93
5.46	3684.68
5.48	3811.11
5.5	3576.31
5.52	3413.75
5.54	3323.44
5.56	2908.01
5.58	2998.32
5.6	3449.87
5.62	3504.06
5.64	2817.69
5.66	3052.5
5.68	2889.94
5.7	3359.56
5.72	2727.38
5.74	3088.63
5.76	3287.31
5.78	3287.31
5.8	3287.31
5.82	3251.19
5.84	3197
5.86	3576.31
5.88	3178.94
5.9	3522.12
5.92	3558.24
5.94	3720.8
5.96	3142.81
5.98	3485.99
6	3124.75
6.02	3395.68
6.04	3377.62
6.06	3305.37
6.08	3142.81
6.1	2763.51
6.12	3323.44
6.14	3359.56
6.16	3106.69
6.18	2781.57
6.2	3215.06
6.22	2944.13
6.24	3233.12
6.26	3287.31
6.28	3449.87
6.3	3359.56
6.32	3052.5
6.34	3124.75
6.36	3106.69
6.38	3142.81
6.4	3070.56
6.42	3485.99
6.44	2817.69
6.46	2998.32
6.48	3522.12
6.5	2727.38
6.52	2908.01
6.54	3540.18
6.56	3612.43
6.58	3323.44
6.6	3449.87
6.62	3287.31
6.64	2871.88
6.66	2709.32
6.68	3142.81
6.7	3413.75
6.72	2673.2
6.74	3142.81
6.76	2944.13
6.78	3070.56
6.8	3142.81
6.82	3522.12
6.84	2908.01
6.86	2998.32
6.88	3106.69
6.9	3052.5
6.92	3106.69
6.94	3070.56
6.96	3124.75
6.98	3359.56
7	2926.07
7.02	3178.94
7.04	3197
7.06	3088.63
7.08	3449.87
7.1	3287.31
7.12	3287.31
7.14	3160.88
7.16	2908.01
7.18	3323.44
7.2	3052.5
7.22	3088.63
7.24	3124.75
7.26	3305.37
7.28	3233.12
7.3	2998.32
7.32	3070.56
7.34	2691.26
7.36	2763.51
7.38	2908.01
7.4	3485.99
7.42	2655.14
7.44	3341.5
7.46	2889.94
7.48	2763.51
7.5	2781.57
7.52	2962.19
7.54	2619.01
7.56	3323.44
7.58	3359.56
7.6	3215.06
7.62	2908.01
7.64	2998.32
7.66	3142.81
7.68	2908.01
7.7	3052.5
7.72	3630.49
7.74	3233.12
7.76	2980.25
7.78	3233.12
7.8	2853.82
7.82	2998.32
7.84	2944.13
7.86	3160.88
7.88	2709.32
7.9	3413.75
7.92	2853.82
7.94	2871.88
7.96	3305.37
7.98	2980.25
8	3233.12
8.02	2980.25
8.04	3088.63
8.06	3034.44
8.08	3233.12
8.1	3178.94
8.12	2998.32
8.14	3323.44
8.16	2889.94
8.18	3160.88
8.2	2926.07
8.22	2926.07
8.24	3558.24
8.26	2980.25
8.28	2908.01
8.3	2745.45
8.32	3106.69
8.34	2655.14
8.36	3215.06
8.38	3178.94
8.4	3359.56
8.42	2853.82
8.44	3215.06
8.46	3305.37
8.48	2962.19
8.5	3052.5
8.52	3287.31
8.54	3088.63
8.56	3070.56
8.58	2926.07
8.6	2926.07
8.62	2889.94
8.64	2853.82
8.66	3034.44
8.68	2727.38
8.7	2619.01
8.72	2528.7
8.74	2871.88
8.76	2944.13
8.78	2655.14
8.8	2871.88
8.82	2474.51
8.84	3034.44
8.86	3016.38
8.88	2600.95
8.9	3016.38
8.92	3052.5
8.94	3142.81
8.96	2799.63
8.98	3052.5
9	2980.25
9.02	3124.75
9.04	2998.32
9.06	3088.63
9.08	3323.44
9.1	3233.12
9.12	3323.44
9.14	3305.37
9.16	3305.37
9.18	3630.49
9.2	3395.68
9.22	3088.63
9.24	2673.2
9.26	2853.82
9.28	2745.45
9.3	2799.63
9.32	2998.32
9.34	2998.32
9.36	2673.2
9.38	2908.01
9.4	2691.26
9.42	3052.5
9.44	2998.32
9.46	3197
9.48	2582.89
9.5	2926.07
9.52	2889.94
9.54	3269.25
9.56	3106.69
9.58	2998.32
9.6	3377.62
9.62	3034.44
9.64	2691.26
9.66	3178.94
9.68	3034.44
9.7	3088.63
9.72	2709.32
9.74	2619.01
9.76	3377.62
9.78	2709.32
9.8	2673.2
9.82	2853.82
9.84	3052.5
9.86	2673.2
9.88	2727.38
9.9	2781.57
9.92	3197
9.94	2853.82
9.96	2835.76
9.98	2745.45
10	2637.07
10.02	3178.94
10.04	3016.38
10.06	2528.7
10.08	2600.95
10.1	2727.38
10.12	2980.25
10.14	3088.63
10.16	2889.94
10.18	2546.76
10.2	3034.44
10.22	2709.32
10.24	2926.07
10.26	2926.07
10.28	2727.38
10.3	3034.44
10.32	3070.56
10.34	2763.51
10.36	2655.14
10.38	2889.94
10.4	2528.7
10.42	2600.95
10.44	2366.14
10.46	2889.94
10.48	2817.69
10.5	2474.51
10.52	2275.83
10.54	3377.62
10.56	2709.32
10.58	2926.07
10.6	2582.89
10.62	2980.25
10.64	2781.57
10.66	2727.38
10.68	2763.51
10.7	3178.94
10.72	2456.45
10.74	2528.7
10.76	2853.82
10.78	2456.45
10.8	2745.45
10.82	2817.69
10.84	2944.13
10.86	3052.5
10.88	2673.2
10.9	2745.45
10.92	2763.51
10.94	2564.82
10.96	2745.45
10.98	2962.19
11	2962.19
11.02	2655.14
11.04	2149.4
11.06	2980.25
11.08	2835.76
11.1	2528.7
11.12	2763.51
11.14	2546.76
11.16	2582.89
11.18	2384.2
11.2	2709.32
11.22	2637.07
11.24	2637.07
11.26	3359.56
11.28	2727.38
11.3	2438.39
11.32	2655.14
11.34	2835.76
11.36	2655.14
11.38	2600.95
11.4	2781.57
11.42	2781.57
11.44	2781.57
11.46	2799.63
11.48	2799.63
11.5	2871.88
11.52	2348.08
11.54	2546.76
11.56	2221.64
11.58	2817.69
11.6	2113.27
11.62	2799.63
11.64	2889.94
11.66	2799.63
11.68	2366.14
11.7	2926.07
11.72	2528.7
11.74	2998.32
11.76	2348.08
11.78	2673.2
11.8	2456.45
11.82	2709.32
11.84	2763.51
11.86	3070.56
11.88	2619.01
11.9	2908.01
11.92	2474.51
11.94	2763.51
11.96	2745.45
11.98	2817.69
12	2221.64
12.02	2600.95
12.04	2600.95
12.06	2330.02
12.08	2727.38
12.1	2709.32
12.12	2637.07
12.14	2871.88
12.16	2619.01
12.18	2944.13
12.2	2709.32
12.22	2691.26
12.24	2799.63
12.26	2619.01
12.28	2474.51
12.3	2817.69
12.32	2691.26
12.34	3016.38
12.36	3052.5
12.38	2763.51
12.4	3016.38
12.42	2889.94
12.44	2889.94
12.46	2926.07
12.48	3341.5
12.5	4009.8
12.52	3774.99
12.54	3395.68
12.56	3359.56
12.58	2835.76
12.6	2673.2
12.62	2637.07
12.64	2528.7
12.66	2926.07
12.68	2438.39
12.7	2311.95
12.72	2673.2
12.74	2799.63
12.76	2980.25
12.78	2655.14
12.8	2691.26
12.82	2564.82
12.84	2564.82
12.86	2402.27
12.88	2763.51
12.9	2817.69
12.92	2456.45
12.94	2492.58
12.96	2384.2
12.98	2691.26
13	2582.89
13.02	2709.32
13.04	2619.01
13.06	2655.14
13.08	2492.58
13.1	2402.27
13.12	2817.69
13.14	2239.71
13.16	2366.14
13.18	2239.71
13.2	2185.52
13.22	2709.32
13.24	2564.82
13.26	2510.64
13.28	2330.02
13.3	2330.02
13.32	2366.14
13.34	2077.15
13.36	2474.51
13.38	2691.26
13.4	2655.14
13.42	2528.7
13.44	2691.26
13.46	2474.51
13.48	2384.2
13.5	2239.71
13.52	2962.19
13.54	2564.82
13.56	2582.89
13.58	1950.71
13.6	2221.64
13.62	2113.27
13.64	2438.39
13.66	2546.76
13.68	2384.2
13.7	2311.95
13.72	2528.7
13.74	2420.33
13.76	2330.02
13.78	2348.08
13.8	2763.51
13.82	2438.39
13.84	2474.51
13.86	3124.75
13.88	2474.51
13.9	2438.39
13.92	2619.01
13.94	2275.83
13.96	2564.82
13.98	2366.14
14	2149.4
14.02	2438.39
14.04	2131.33
14.06	2203.58
14.08	2348.08
14.1	2637.07
14.12	2275.83
14.14	2348.08
14.16	2926.07
14.18	3016.38
14.2	2420.33
14.22	2528.7
14.24	2203.58
14.26	2564.82
14.28	2402.27
14.3	2510.64
14.32	2492.58
14.34	2348.08
14.36	2420.33
14.38	2384.2
14.4	2510.64
14.42	2293.89
14.44	2564.82
14.46	2366.14
14.48	2402.27
14.5	2348.08
14.52	2095.21
14.54	2384.2
14.56	2330.02
14.58	2456.45
14.6	2095.21
14.62	2456.45
14.64	2113.27
14.66	2492.58
14.68	2384.2
14.7	2546.76
14.72	2384.2
14.74	2311.95
14.76	2402.27
14.78	2600.95
14.8	2167.46
14.82	2041.02
14.84	2149.4
14.86	2221.64
14.88	2619.01
14.9	2799.63
14.92	2546.76
14.94	2889.94
14.96	2709.32
14.98	2582.89
15	2727.38
15.02	2709.32
15.04	2510.64
15.06	3070.56
15.08	2438.39
15.1	2763.51
15.12	2348.08
15.14	2546.76
15.16	2781.57
15.18	2275.83
15.2	2330.02
15.22	2564.82
15.24	2510.64
15.26	2456.45
15.28	2384.2
15.3	2492.58
15.32	2456.45
15.34	2348.08
15.36	2835.76
15.38	2510.64
15.4	2113.27
15.42	2402.27
15.44	2293.89
15.46	2420.33
15.48	2908.01
15.5	2438.39
15.52	2330.02
15.54	2293.89
15.56	1752.03
15.58	2546.76
15.6	2402.27
15.62	2348.08
15.64	2384.2
15.66	2438.39
15.68	2221.64
15.7	2293.89
15.72	2944.13
15.74	2510.64
15.76	2348.08
15.78	2185.52
15.8	2619.01
15.82	2239.71
15.84	2474.51
15.86	2492.58
15.88	2438.39
15.9	2673.2
15.92	2510.64
15.94	3052.5
15.96	3178.94
15.98	3738.86
16	3359.56
16.02	4009.8
16.04	4334.92
16.06	3937.55
16.08	3504.06
16.1	3341.5
16.12	2835.76
16.14	2257.77
16.16	2564.82
16.18	2402.27
16.2	2293.89
16.22	2239.71
16.24	2528.7
16.26	2438.39
16.28	2402.27
16.3	1950.71
16.32	1878.46
16.34	2402.27
16.36	2004.9
16.38	2420.33
16.4	2402.27
16.42	2239.71
16.44	2402.27
16.46	2293.89
16.48	2203.58
16.5	2384.2
16.52	2275.83
16.54	2384.2
16.56	2366.14
16.58	1968.77
16.6	2275.83
16.62	2113.27
16.64	2257.77
16.66	2041.02
16.68	2619.01
16.7	2095.21
16.72	2059.08
16.74	2275.83
16.76	2113.27
16.78	2185.52
16.8	2077.15
16.82	2402.27
16.84	2131.33
16.86	2492.58
16.88	2239.71
16.9	2185.52
16.92	2257.77
16.94	2131.33
16.96	2203.58
16.98	2311.95
17	2059.08
17.02	1950.71
17.04	2384.2
17.06	2203.58
17.08	2004.9
17.1	2492.58
17.12	2275.83
17.14	2077.15
17.16	1986.84
17.18	2203.58
17.2	2275.83
17.22	2221.64
17.24	2022.96
17.26	1932.65
17.28	1788.15
17.3	1842.34
17.32	2420.33
17.34	2293.89
17.36	1788.15
17.38	2221.64
17.4	2203.58
17.42	2239.71
17.44	2348.08
17.46	2059.08
17.48	2221.64
17.5	1932.65
17.52	2311.95
17.54	2203.58
17.56	1932.65
17.58	2059.08
17.6	2203.58
17.62	2113.27
17.64	2366.14
17.66	2004.9
17.68	2149.4
17.7	2149.4
17.72	2077.15
17.74	2655.14
17.76	2619.01
17.78	2944.13
17.8	3016.38
17.82	3395.68
17.84	3287.31
17.86	4479.41
17.88	4660.03
17.9	5725.7
17.92	6321.75
17.94	6574.62
17.96	7008.11
17.98	5978.57
18	5761.82
18.02	4045.92
18.04	3160.88
18.06	2944.13
18.08	2311.95
18.1	1986.84
18.12	2077.15
18.14	2275.83
18.16	2239.71
18.18	2438.39
18.2	2420.33
18.22	1715.9
18.24	2366.14
18.26	2673.2
18.28	2637.07
18.3	2889.94
18.32	3395.68
18.34	3576.31
18.36	4226.54
18.38	4497.47
18.4	5256.08
18.42	5310.27
18.44	5111.59
18.46	5003.21
18.48	4407.16
18.5	3377.62
18.52	3287.31
18.54	2889.94
18.56	2384.2
18.58	2600.95
18.6	2348.08
18.62	2510.64
18.64	2131.33
18.66	1733.97
18.68	2041.02
18.7	2348.08
18.72	1986.84
18.74	2077.15
18.76	1968.77
18.78	1806.21
18.8	2149.4
18.82	1788.15
18.84	2293.89
18.86	1968.77
18.88	1968.77
18.9	2293.89
18.92	2257.77
18.94	2203.58
18.96	2095.21
18.98	2655.14
19	2492.58
19.02	2691.26
19.04	2835.76
19.06	2817.69
19.08	3251.19
19.1	3558.24
19.12	4226.54
19.14	5165.77
19.16	5508.95
19.18	6502.37
19.2	5761.82
19.22	5274.15
19.24	4641.97
19.26	3106.69
19.28	3160.88
19.3	3034.44
19.32	2239.71
19.34	2528.7
19.36	2366.14
19.38	1770.09
19.4	2004.9
19.42	2564.82
19.44	2041.02
19.46	2022.96
19.48	2257.77
19.5	2077.15
19.52	2113.27
19.54	1986.84
19.56	2239.71
19.58	2059.08
19.6	2167.46
19.62	2131.33
19.64	2185.52
19.66	1842.34
19.68	1842.34
19.7	1914.59
19.72	2149.4
19.74	2185.52
19.76	1697.84
19.78	1842.34
19.8	2022.96
19.82	1914.59
19.84	1950.71
19.86	2293.89
19.88	2041.02
19.9	2203.58
19.92	2420.33
19.94	2221.64
19.96	2131.33
19.98	2438.39
20	2600.95
20.02	2546.76
20.04	2420.33
20.06	2655.14
20.08	2041.02
20.1	2203.58
20.12	1842.34
20.14	2167.46
20.16	1986.84
20.18	2149.4
20.2	1806.21
20.22	1950.71
20.24	2257.77
20.26	1932.65
20.28	1914.59
20.3	2004.9
20.32	2004.9
20.34	1788.15
20.36	1788.15
20.38	1878.46
20.4	1824.28
20.42	1860.4
20.44	1697.84
20.46	1788.15
20.48	2203.58
20.5	2167.46
20.52	1986.84
20.54	1896.53
20.56	1986.84
20.58	1806.21
20.6	2149.4
20.62	1860.4
20.64	2311.95
20.66	1752.03
20.68	2077.15
20.7	1986.84
20.72	1968.77
20.74	1679.78
20.76	2113.27
20.78	1842.34
20.8	2077.15
20.82	2311.95
20.84	2275.83
20.86	2546.76
20.88	2998.32
20.9	2817.69
20.92	3774.99
20.94	4678.1
20.96	5761.82
20.98	6339.81
21	7549.98
21.02	7658.35
21.04	6502.37
21.06	5852.14
21.08	4389.1
21.1	3540.18
21.12	3305.37
21.14	2456.45
21.16	1950.71
21.18	2348.08
21.2	1896.53
21.22	1896.53
21.24	1733.97
21.26	1914.59
21.28	1878.46
21.3	1950.71
21.32	1824.28
21.34	1842.34
21.36	1715.9
21.38	1517.22
21.4	1517.22
21.42	1932.65
21.44	1842.34
21.46	2095.21
21.48	1715.9
21.5	1679.78
21.52	1914.59
21.54	1661.72
21.56	2059.08
21.58	2221.64
21.6	2113.27
21.62	1788.15
21.64	1770.09
21.66	1733.97
21.68	1896.53
21.7	1770.09
21.72	1661.72
21.74	1878.46
21.76	2149.4
21.78	1986.84
21.8	1715.9
21.82	1878.46
21.84	1589.47
21.86	1643.66
21.88	2004.9
21.9	1733.97
21.92	1752.03
21.94	1607.53
21.96	1986.84
21.98	1860.4
22	1589.47
22.02	1643.66
22.04	1788.15
22.06	1589.47
22.08	1715.9
22.1	1679.78
22.12	1571.41
22.14	1914.59
22.16	1697.84
22.18	1625.59
22.2	1715.9
22.22	1824.28
22.24	1842.34
22.26	1806.21
22.28	1715.9
22.3	1553.34
22.32	1444.97
22.34	1643.66
22.36	1733.97
22.38	1914.59
22.4	1625.59
22.42	1752.03
22.44	1499.16
22.46	1896.53
22.48	1336.6
22.5	1625.59
22.52	1878.46
22.54	2059.08
22.56	2095.21
22.58	1679.78
22.6	2077.15
22.62	1950.71
22.64	2041.02
22.66	1661.72
22.68	1571.41
22.7	1842.34
22.72	1679.78
22.74	1914.59
22.76	1228.23
22.78	1535.28
22.8	1625.59
22.82	1643.66
22.84	1752.03
22.86	1625.59
22.88	1553.34
22.9	1842.34
22.92	1770.09
22.94	2041.02
22.96	1860.4
22.98	1679.78
23	1481.1
23.02	2022.96
23.04	2041.02
23.06	1824.28
23.08	1607.53
23.1	1589.47
23.12	1607.53
23.14	1643.66
23.16	1932.65
23.18	1607.53
23.2	1444.97
23.22	1968.77
23.24	2149.4
23.26	2113.27
23.28	1950.71
23.3	2257.77
23.32	2293.89
23.34	2203.58
23.36	2095.21
23.38	1914.59
23.4	1788.15
23.42	1607.53
23.44	1607.53
23.46	1174.04
23.48	1499.16
23.5	1499.16
23.52	1246.29
23.54	1372.72
23.56	1517.22
23.58	1571.41
23.6	1553.34
23.62	1643.66
23.64	1463.03
23.66	1390.79
23.68	1661.72
23.7	1517.22
23.72	1282.41
23.74	1625.59
23.76	1372.72
23.78	1517.22
23.8	1228.23
23.82	1481.1
23.84	1571.41
23.86	1607.53
23.88	1535.28
23.9	1607.53
23.92	1481.1
23.94	1336.6
23.96	1444.97
23.98	1553.34
24	1715.9
24.02	1715.9
24.04	1101.79
24.06	1643.66
24.08	1643.66
24.1	1733.97
24.12	1571.41
24.14	1661.72
24.16	1607.53
24.18	1354.66
24.2	1444.97
24.22	1408.85
24.24	1625.59
24.26	1426.91
24.28	1192.1
24.3	1137.92
24.32	1463.03
24.34	1463.03
24.36	1426.91
24.38	1210.16
24.4	1318.54
24.42	1354.66
24.44	1463.03
24.46	1372.72
24.48	1354.66
24.5	1589.47
24.52	1336.6
24.54	1408.85
24.56	1264.35
24.58	1806.21
24.6	1354.66
24.62	1137.92
24.64	1390.79
24.66	1336.6
24.68	1553.34
24.7	1228.23
24.72	1336.6
24.74	1318.54
24.76	1426.91
24.78	1481.1
24.8	1372.72
24.82	1390.79
24.84	1174.04
24.86	1282.41
24.88	1300.47
24.9	1661.72
24.92	1517.22
24.94	1463.03
24.96	1246.29
24.98	1607.53
25	1174.04
25.02	1535.28
25.04	1643.66
25.06	1589.47
25.08	1697.84
25.1	1174.04
25.12	1715.9
25.14	1408.85
25.16	1752.03
25.18	2131.33
25.2	2041.02
25.22	1806.21
25.24	2041.02
25.26	2113.27
25.28	2221.64
25.3	2510.64
25.32	2673.2
25.34	2926.07
25.36	2962.19
25.38	3070.56
25.4	3504.06
25.42	3738.86
25.44	4334.92
25.46	5003.21
25.48	5183.84
25.5	5870.2
25.52	6195.32
25.54	7008.11
25.56	5436.71
25.58	5274.15
25.6	4389.1
25.62	3630.49
25.64	2564.82
25.66	2564.82
25.68	2004.9
25.7	1643.66
25.72	1643.66
25.74	1571.41
25.76	1661.72
25.78	1499.16
25.8	1228.23
25.82	1354.66
25.84	1228.23
25.86	1481.1
25.88	1589.47
25.9	1408.85
25.92	1444.97
25.94	1408.85
25.96	1119.85
25.98	1589.47
26	1553.34
26.02	1282.41
26.04	1426.91
26.06	1481.1
26.08	1300.47
26.1	1481.1
26.12	1571.41
26.14	1806.21
26.16	1806.21
26.18	2022.96
26.2	2203.58
26.22	2799.63
26.24	3160.88
26.26	2835.76
26.28	2763.51
26.3	2908.01
26.32	2348.08
26.34	2348.08
26.36	2131.33
26.38	1752.03
26.4	1372.72
26.42	1481.1
26.44	1444.97
26.46	1408.85
26.48	1553.34
26.5	1806.21
26.52	1697.84
26.54	1896.53
26.56	2022.96
26.58	1571.41
26.6	1354.66
26.62	1770.09
26.64	1481.1
26.66	1282.41
26.68	1210.16
26.7	1264.35
26.72	1174.04
26.74	1210.16
26.76	975.356
26.78	921.169
26.8	1192.1
26.82	1174.04
26.84	1336.6
26.86	1264.35
26.88	1210.16
26.9	1318.54
26.92	1119.85
26.94	1119.85
26.96	1155.98
26.98	1463.03
27	1065.67
27.02	1336.6
27.04	1192.1
27.06	1318.54
27.08	1300.47
27.1	1174.04
27.12	1354.66
27.14	1029.54
27.16	1155.98
27.18	1192.1
27.2	1444.97
27.22	1372.72
27.24	1372.72
27.26	1408.85
27.28	1499.16
27.3	1517.22
27.32	1517.22
27.34	2330.02
27.36	2293.89
27.38	3359.56
27.4	4226.54
27.42	5201.9
27.44	5346.4
27.46	5310.27
27.48	5219.96
27.5	4371.04
27.52	3829.18
27.54	2366.14
27.56	2727.38
27.58	1842.34
27.6	1589.47
27.62	1372.72
27.64	1282.41
27.66	1336.6
27.68	1390.79
27.7	1155.98
27.72	1408.85
27.74	1336.6
27.76	1499.16
27.78	1499.16
27.8	1517.22
27.82	1426.91
27.84	1499.16
27.86	1463.03
27.88	1444.97
27.9	1192.1
27.92	1318.54
27.94	1065.67
27.96	1119.85
27.98	1300.47
28	1372.72
28.02	1192.1
28.04	1210.16
28.06	1174.04
28.08	1119.85
28.1	1228.23
28.12	903.107
28.14	794.734
28.16	1101.79
28.18	1119.85
28.2	1029.54
28.22	1083.73
28.24	1192.1
28.26	975.356
28.28	1101.79
28.3	848.921
28.32	957.294
28.34	1065.67
28.36	848.921
28.38	1083.73
28.4	1011.48
28.42	722.486
28.44	939.232
28.46	1083.73
28.48	1101.79
28.5	885.045
28.52	1137.92
28.54	1101.79
28.56	1101.79
28.58	1119.85
28.6	921.169
28.62	1155.98
28.64	1354.66
28.66	957.294
28.68	812.797
28.7	1264.35
28.72	1137.92
28.74	740.548
28.76	921.169
28.78	903.107
28.8	939.232
28.82	1228.23
28.84	1011.48
28.86	921.169
28.88	939.232
28.9	1083.73
28.92	903.107
28.94	993.418
28.96	921.169
28.98	1011.48
29	1047.6
29.02	830.859
29.04	1011.48
29.06	1065.67
29.08	1228.23
29.1	1300.47
29.12	794.734
29.14	1047.6
29.16	1011.48
29.18	1065.67
29.2	1083.73
29.22	1065.67
29.24	903.107
29.26	957.294
29.28	885.045
29.3	848.921
29.32	1083.73
29.34	722.486
29.36	1011.48
29.38	1119.85
29.4	957.294
29.42	1065.67
29.44	866.983
29.46	1011.48
29.48	885.045
29.5	975.356
29.52	993.418
29.54	957.294
29.56	758.61
29.58	866.983
29.6	776.672
29.62	866.983
29.64	1065.67
29.66	1083.73
29.68	957.294
29.7	1101.79
29.72	1300.47
29.74	1119.85
29.76	1535.28
29.78	1354.66
29.8	1408.85
29.82	1264.35
29.84	1571.41
29.86	1155.98
29.88	1228.23
29.9	1264.35
29.92	1155.98
29.94	1029.54
29.96	903.107
29.98	939.232
30	632.175
30.02	812.797
30.04	885.045
30.06	1065.67
30.08	1011.48
30.1	812.797
30.12	577.989
30.14	921.169
30.16	921.169
30.18	993.418
30.2	1011.48
30.22	758.61
30.24	794.734
30.26	921.169
30.28	993.418
30.3	885.045
30.32	1011.48
30.34	1047.6
30.36	1246.29
30.38	1246.29
30.4	1571.41
30.42	1426.91
30.44	1499.16
30.46	1463.03
30.48	1372.72
30.5	1354.66
30.52	1119.85
30.54	1083.73
30.56	903.107
30.58	1246.29
30.6	758.61
30.62	830.859
30.64	993.418
30.66	740.548
30.68	866.983
30.7	1174.04
30.72	1029.54
30.74	1083.73
30.76	1029.54
30.78	794.734
30.8	921.169
30.82	1047.6
30.84	939.232
30.86	1137.92
30.88	740.548
30.9	848.921
30.92	848.921
30.94	921.169
30.96	885.045
30.98	794.734
31	1011.48
31.02	993.418
31.04	668.299
31.06	830.859
31.08	1029.54
31.1	1101.79
31.12	830.859
31.14	776.672
31.16	885.045
31.18	758.61
31.2	1192.1
31.22	1065.67
31.24	993.418
31.26	1101.79
31.28	1011.48
31.3	921.169
31.32	939.232
31.34	957.294
31.36	1210.16
31.38	1155.98
31.4	957.294
31.42	1029.54
31.44	1174.04
31.46	1065.67
31.48	921.169
31.5	885.045
31.52	1029.54
31.54	903.107
31.56	1029.54
31.58	939.232
31.6	921.169
31.62	866.983
31.64	650.237
31.66	650.237
31.68	866.983
31.7	776.672
31.72	957.294
31.74	632.175
31.76	1192.1
31.78	957.294
31.8	704.424
31.82	921.169
31.84	866.983
31.86	885.045
31.88	830.859
31.9	776.672
31.92	794.734
31.94	704.424
31.96	758.61
31.98	848.921
32	722.486
32.02	668.299
32.04	758.61
32.06	740.548
32.08	848.921
32.1	668.299
32.12	740.548
32.14	704.424
32.16	1011.48
32.18	794.734
32.2	975.356
32.22	866.983
32.24	957.294
32.26	939.232
32.28	1155.98
32.3	1228.23
32.32	1155.98
32.34	1318.54
32.36	1463.03
32.38	1336.6
32.4	1282.41
32.42	1192.1
32.44	1155.98
32.46	921.169
32.48	1047.6
32.5	1300.47
32.52	1029.54
32.54	993.418
32.56	1083.73
32.58	1372.72
32.6	1444.97
32.62	1535.28
32.64	1806.21
32.66	1914.59
32.68	1679.78
32.7	1860.4
32.72	1553.34
32.74	1426.91
32.76	1282.41
32.78	1083.73
32.8	1390.79
32.82	1318.54
32.84	993.418
32.86	830.859
32.88	957.294
32.9	848.921
32.92	1029.54
32.94	866.983
32.96	1083.73
32.98	939.232
33	812.797
33.02	758.61
33.04	848.921
33.06	830.859
33.08	885.045
33.1	812.797
33.12	830.859
33.14	722.486
33.16	614.113
33.18	848.921
33.2	668.299
33.22	830.859
33.24	776.672
33.26	885.045
33.28	848.921
33.3	686.362
33.32	740.548
33.34	632.175
33.36	577.989
33.38	541.864
33.4	885.045
33.42	577.989
33.44	704.424
33.46	722.486
33.48	632.175
33.5	704.424
33.52	776.672
33.54	921.169
33.56	903.107
33.58	921.169
33.6	1011.48
33.62	921.169
33.64	885.045
33.66	1011.48
33.68	921.169
33.7	740.548
33.72	885.045
33.74	776.672
33.76	1083.73
33.78	975.356
33.8	885.045
33.82	650.237
33.84	614.113
33.86	812.797
33.88	614.113
33.9	885.045
33.92	794.734
33.94	722.486
33.96	921.169
33.98	866.983
34	939.232
34.02	993.418
34.04	1047.6
34.06	1011.48
34.08	939.232
34.1	885.045
34.12	722.486
34.14	704.424
34.16	650.237
34.18	939.232
34.2	704.424
34.22	686.362
34.24	632.175
34.26	704.424
34.28	722.486
34.3	758.61
34.32	577.989
34.34	686.362
34.36	848.921
34.38	722.486
34.4	740.548
34.42	740.548
34.44	830.859
34.46	975.356
34.48	776.672
34.5	758.61
34.52	812.797
34.54	596.051
34.56	722.486
34.58	650.237
34.6	577.989
34.62	614.113
34.64	722.486
34.66	614.113
34.68	686.362
34.7	830.859
34.72	722.486
34.74	632.175
34.76	614.113
34.78	614.113
34.8	776.672
34.82	812.797
34.84	704.424
34.86	1155.98
34.88	957.294
34.9	957.294
34.92	758.61
34.94	1083.73
34.96	632.175
34.98	668.299
35	632.175
35.02	812.797
35.04	704.424
35.06	776.672
35.08	559.927
35.1	559.927
35.12	704.424
35.14	686.362
35.16	740.548
35.18	650.237
35.2	866.983
35.22	614.113
35.24	415.429
35.26	577.989
35.28	577.989
35.3	487.678
35.32	758.61
35.34	523.802
35.36	668.299
35.38	686.362
35.4	686.362
35.42	722.486
35.44	343.181
35.46	614.113
35.48	758.61
35.5	686.362
35.52	704.424
35.54	559.927
35.56	758.61
35.58	541.864
35.6	397.367
35.62	848.921
35.64	541.864
35.66	885.045
35.68	686.362
35.7	722.486
35.72	939.232
35.74	668.299
35.76	758.61
35.78	794.734
35.8	848.921
35.82	722.486
35.84	722.486
35.86	812.797
35.88	758.61
35.9	776.672
35.92	650.237
35.94	812.797
35.96	830.859
35.98	614.113
36	885.045
36.02	686.362
36.04	559.927
36.06	596.051
36.08	668.299
36.1	668.299
36.12	559.927
36.14	632.175
36.16	632.175
36.18	632.175
36.2	487.678
36.22	415.429
36.24	686.362
36.26	523.802
36.28	704.424
36.3	668.299
36.32	957.294
36.34	704.424
36.36	1101.79
36.38	794.734
36.4	668.299
36.42	650.237
36.44	614.113
36.46	758.61
36.48	577.989
36.5	650.237
36.52	704.424
36.54	722.486
36.56	812.797
36.58	614.113
36.6	903.107
36.62	794.734
36.64	957.294
36.66	1300.47
36.68	1535.28
36.7	1264.35
36.72	1589.47
36.74	1408.85
36.76	1101.79
36.78	1047.6
36.8	1137.92
36.82	939.232
36.84	1011.48
36.86	885.045
36.88	1029.54
36.9	885.045
36.92	1083.73
36.94	1174.04
36.96	1318.54
36.98	1210.16
37	1047.6
37.02	1101.79
37.04	975.356
37.06	1119.85
37.08	776.672
37.1	1029.54
37.12	722.486
37.14	686.362
37.16	866.983
37.18	668.299
37.2	794.734
37.22	812.797
37.24	632.175
37.26	632.175
37.28	433.492
37.3	559.927
37.32	686.362
37.34	704.424
37.36	704.424
37.38	596.051
37.4	830.859
37.42	487.678
37.44	523.802
37.46	758.61
37.48	541.864
37.5	523.802
37.52	650.237
37.54	596.051
37.56	866.983
37.58	686.362
37.6	397.367
37.62	596.051
37.64	559.927
37.66	650.237
37.68	650.237
37.7	577.989
37.72	794.734
37.74	885.045
37.76	830.859
37.78	939.232
37.8	1083.73
37.82	1047.6
37.84	1065.67
37.86	722.486
37.88	885.045
37.9	993.418
37.92	614.113
37.94	812.797
37.96	794.734
37.98	668.299
38	722.486
38.02	523.802
38.04	451.554
38.06	740.548
38.08	596.051
38.1	559.927
38.12	921.169
38.14	776.672
38.16	722.486
38.18	1174.04
38.2	1029.54
38.22	921.169
38.24	830.859
38.26	794.734
38.28	885.045
38.3	848.921
38.32	650.237
38.34	686.362
38.36	523.802
38.38	469.616
38.4	577.989
38.42	559.927
38.44	632.175
38.46	505.74
38.48	433.492
38.5	541.864
38.52	415.429
38.54	523.802
38.56	541.864
38.58	487.678
38.6	632.175
38.62	523.802
38.64	559.927
38.66	758.61
38.68	812.797
38.7	957.294
38.72	758.61
38.74	1047.6
38.76	668.299
38.78	1119.85
38.8	812.797
38.82	848.921
38.84	758.61
38.86	830.859
38.88	776.672
38.9	957.294
38.92	794.734
38.94	1029.54
38.96	903.107
38.98	1029.54
39	939.232
39.02	975.356
39.04	758.61
39.06	957.294
39.08	1228.23
39.1	1372.72
39.12	1444.97
39.14	1011.48
39.16	1625.59
39.18	1589.47
39.2	1481.1
39.22	1282.41
39.24	1011.48
39.26	993.418
39.28	903.107
39.3	903.107
39.32	830.859
39.34	650.237
39.36	740.548
39.38	451.554
39.4	704.424
39.42	469.616
39.44	379.305
39.46	596.051
39.48	505.74
39.5	469.616
39.52	523.802
39.54	397.367
39.56	451.554
39.58	487.678
39.6	505.74
39.62	668.299
39.64	614.113
39.66	397.367
39.68	523.802
39.7	433.492
39.72	614.113
39.74	559.927
39.76	559.927
39.78	505.74
39.8	559.927
39.82	325.119
39.84	451.554
39.86	559.927
39.88	541.864
39.9	740.548
39.92	523.802
39.94	650.237
39.96	704.424
39.98	596.051
40	668.299
40.02	632.175
40.04	704.424
40.06	704.424
40.08	523.802
40.1	794.734
40.12	614.113
40.14	505.74
40.16	523.802
40.18	415.429
40.2	415.429
40.22	559.927
40.24	505.74
40.26	541.864
40.28	325.119
40.3	415.429
40.32	451.554
40.34	487.678
40.36	307.056
40.38	469.616
40.4	433.492
40.42	415.429
40.44	415.429
40.46	559.927
40.48	343.181
40.5	415.429
40.52	433.492
40.54	361.243
40.56	812.797
40.58	722.486
40.6	523.802
40.62	541.864
40.64	596.051
40.66	541.864
40.68	487.678
40.7	397.367
40.72	596.051
40.74	505.74
40.76	451.554
40.78	559.927
40.8	288.994
40.82	505.74
40.84	577.989
40.86	505.74
40.88	415.429
40.9	433.492
40.92	632.175
40.94	487.678
40.96	596.051
40.98	451.554
41	469.616
41.02	451.554
41.04	541.864
41.06	487.678
41.08	487.678
41.1	487.678
41.12	433.492
41.14	379.305
41.16	379.305
41.18	559.927
41.2	704.424
41.22	866.983
41.24	776.672
41.26	776.672
41.28	668.299
41.3	939.232
41.32	848.921
41.34	668.299
41.36	776.672
41.38	885.045
41.4	740.548
41.42	758.61
41.44	776.672
41.46	650.237
41.48	668.299
41.5	577.989
41.52	921.169
41.54	632.175
41.56	650.237
41.58	614.113
41.6	722.486
41.62	577.989
41.64	614.113
41.66	614.113
41.68	523.802
41.7	469.616
41.72	541.864
41.74	523.802
41.76	632.175
41.78	523.802
41.8	722.486
41.82	668.299
41.84	848.921
41.86	559.927
41.88	505.74
41.9	632.175
41.92	451.554
41.94	451.554
41.96	505.74
41.98	541.864
42	361.243
42.02	451.554
42.04	415.429
42.06	343.181
42.08	451.554
42.1	397.367
42.12	379.305
42.14	415.429
42.16	523.802
42.18	487.678
42.2	451.554
42.22	433.492
42.24	469.616
42.26	433.492
42.28	433.492
42.3	487.678
42.32	469.616
42.34	433.492
42.36	469.616
42.38	469.616
42.4	487.678
42.42	758.61
42.44	722.486
42.46	415.429
42.48	559.927
42.5	596.051
42.52	596.051
42.54	433.492
42.56	451.554
42.58	307.056
42.6	577.989
42.62	523.802
42.64	541.864
42.66	596.051
42.68	614.113
42.7	686.362
42.72	505.74
42.74	794.734
42.76	921.169
42.78	776.672
42.8	794.734
42.82	848.921
42.84	722.486
42.86	668.299
42.88	523.802
42.9	812.797
42.92	668.299
42.94	686.362
42.96	505.74
42.98	740.548
43	596.051
43.02	415.429
43.04	559.927
43.06	523.802
43.08	451.554
43.1	379.305
43.12	451.554
43.14	307.056
43.16	270.932
43.18	379.305
43.2	433.492
43.22	433.492
43.24	433.492
43.26	343.181
43.28	451.554
43.3	451.554
43.32	487.678
43.34	361.243
43.36	397.367
43.38	632.175
43.4	361.243
43.42	596.051
43.44	343.181
43.46	505.74
43.48	397.367
43.5	505.74
43.52	487.678
43.54	433.492
43.56	361.243
43.58	614.113
43.6	614.113
43.62	433.492
43.64	559.927
43.66	686.362
43.68	559.927
43.7	559.927
43.72	523.802
43.74	614.113
43.76	469.616
43.78	469.616
43.8	451.554
43.82	541.864
43.84	397.367
43.86	433.492
43.88	397.367
43.9	559.927
43.92	541.864
43.94	397.367
43.96	541.864
43.98	397.367
44	288.994
44.02	577.989
44.04	469.616
44.06	596.051
44.08	451.554
44.1	397.367
44.12	415.429
44.14	523.802
44.16	325.119
44.18	596.051
44.2	433.492
44.22	614.113
44.24	596.051
44.26	487.678
44.28	397.367
44.3	451.554
44.32	668.299
44.34	505.74
44.36	505.74
44.38	505.74
44.4	415.429
44.42	307.056
44.44	415.429
44.46	415.429
44.48	397.367
44.5	343.181
44.52	451.554
44.54	433.492
44.56	397.367
44.58	397.367
44.6	469.616
44.62	505.74
44.64	614.113
44.66	632.175
44.68	433.492
44.7	487.678
44.72	559.927
44.74	487.678
44.76	469.616
44.78	433.492
44.8	505.74
44.82	469.616
44.84	415.429
44.86	325.119
44.88	451.554
44.9	469.616
44.92	632.175
44.94	541.864
44.96	469.616
44.98	415.429
45	361.243
45.02	343.181
45.04	451.554
45.06	379.305
45.08	505.74
45.1	252.87
45.12	433.492
45.14	415.429
45.16	415.429
45.18	487.678
45.2	487.678
45.22	469.616
45.24	704.424
45.26	379.305
45.28	343.181
45.3	722.486
45.32	523.802
45.34	288.994
45.36	487.678
45.38	361.243
45.4	343.181
45.42	343.181
45.44	451.554
45.46	343.181
45.48	379.305
45.5	307.056
45.52	487.678
45.54	469.616
45.56	343.181
45.58	397.367
45.6	270.932
45.62	379.305
45.64	433.492
45.66	270.932
45.68	397.367
45.7	397.367
45.72	343.181
45.74	325.119
45.76	361.243
45.78	451.554
45.8	343.181
45.82	379.305
45.84	379.305
45.86	451.554
45.88	270.932
45.9	523.802
45.92	234.808
45.94	379.305
45.96	559.927
45.98	361.243
46	397.367
46.02	325.119
46.04	361.243
46.06	487.678
46.08	361.243
46.1	361.243
46.12	379.305
46.14	379.305
46.16	650.237
46.18	487.678
46.2	541.864
46.22	758.61
46.24	650.237
46.26	686.362
46.28	559.927
46.3	577.989
46.32	632.175
46.34	433.492
46.36	487.678
46.38	415.429
46.4	379.305
46.42	451.554
46.44	252.87
46.46	288.994
46.48	415.429
46.5	469.616
46.52	343.181
46.54	415.429
46.56	415.429
46.58	343.181
46.6	415.429
46.62	198.684
46.64	270.932
46.66	505.74
46.68	451.554
46.7	361.243
46.72	379.305
46.74	288.994
46.76	343.181
46.78	577.989
46.8	307.056
46.82	451.554
46.84	343.181
46.86	343.181
46.88	577.989
46.9	361.243
46.92	523.802
46.94	451.554
46.96	505.74
46.98	686.362
47	379.305
47.02	487.678
47.04	541.864
47.06	415.429
47.08	722.486
47.1	505.74
47.12	541.864
47.14	596.051
47.16	451.554
47.18	325.119
47.2	523.802
47.22	559.927
47.24	415.429
47.26	505.74
47.28	650.237
47.3	469.616
47.32	343.181
47.34	397.367
47.36	397.367
47.38	505.74
47.4	433.492
47.42	288.994
47.44	415.429
47.46	343.181
47.48	523.802
47.5	632.175
47.52	343.181
47.54	397.367
47.56	541.864
47.58	451.554
47.6	288.994
47.62	433.492
47.64	451.554
47.66	379.305
47.68	577.989
47.7	415.429
47.72	361.243
47.74	523.802
47.76	505.74
47.78	325.119
47.8	415.429
47.82	415.429
47.84	325.119
47.86	397.367
47.88	469.616
47.9	379.305
47.92	270.932
47.94	361.243
47.96	487.678
47.98	216.746
48	307.056
48.02	270.932
48.04	415.429
48.06	397.367
48.08	379.305
48.1	288.994
48.12	451.554
48.14	379.305
48.16	451.554
48.18	487.678
48.2	415.429
48.22	469.616
48.24	559.927
48.26	433.492
48.28	487.678
48.3	415.429
48.32	505.74
48.34	379.305
48.36	415.429
48.38	270.932
48.4	288.994
48.42	379.305
48.44	325.119
48.46	343.181
48.48	343.181
48.5	361.243
48.52	325.119
48.54	234.808
48.56	325.119
48.58	469.616
48.6	397.367
48.62	415.429
48.64	487.678
48.66	307.056
48.68	379.305
48.7	307.056
48.72	343.181
48.74	343.181
48.76	325.119
48.78	234.808
48.8	234.808
48.82	198.684
48.84	307.056
48.86	379.305
48.88	577.989
48.9	198.684
48.92	307.056
48.94	307.056
48.96	307.056
48.98	252.87
49	270.932
49.02	379.305
49.04	361.243
49.06	270.932
49.08	325.119
49.1	361.243
49.12	433.492
49.14	198.684
49.16	252.87
49.18	451.554
49.2	343.181
49.22	343.181
49.24	523.802
49.26	307.056
49.28	361.243
49.3	325.119
49.32	415.429
49.34	307.056
49.36	325.119
49.38	343.181
49.4	252.87
49.42	379.305
49.44	397.367
49.46	288.994
49.48	505.74
49.5	361.243
49.52	451.554
49.54	252.87
49.56	361.243
49.58	397.367
49.6	379.305
49.62	397.367
49.64	343.181
49.66	541.864
49.68	397.367
49.7	415.429
49.72	288.994
49.74	343.181
49.76	397.367
49.78	288.994
49.8	397.367
49.82	415.429
49.84	415.429
49.86	469.616
49.88	415.429
49.9	433.492
49.92	559.927
49.94	379.305
49.96	288.994
49.98	288.994
50	252.87
50.02	559.927
50.04	433.492
50.06	469.616
50.08	307.056
50.1	361.243
50.12	361.243
50.14	361.243
50.16	343.181
50.18	343.181
50.2	451.554
50.22	487.678
50.24	361.243
50.26	379.305
50.28	614.113
50.3	397.367
50.32	451.554
50.34	361.243
50.36	487.678
50.38	361.243
50.4	505.74
50.42	523.802
50.44	433.492
50.46	397.367
50.48	487.678
50.5	379.305
50.52	541.864
50.54	379.305
50.56	469.616
50.58	307.056
50.6	469.616
50.62	361.243
50.64	487.678
50.66	523.802
50.68	343.181
50.7	343.181
50.72	325.119
50.74	288.994
50.76	307.056
50.78	325.119
50.8	379.305
50.82	379.305
50.84	288.994
50.86	270.932
50.88	451.554
50.9	559.927
50.92	216.746
50.94	379.305
50.96	343.181
50.98	433.492
51	288.994
51.02	270.932
51.04	361.243
51.06	343.181
51.08	234.808
51.1	397.367
51.12	325.119
51.14	307.056
51.16	162.559
51.18	270.932
51.2	361.243
51.22	469.616
51.24	379.305
51.26	451.554
51.28	379.305
51.3	469.616
51.32	270.932
51.34	288.994
51.36	505.74
51.38	307.056
51.4	379.305
51.42	343.181
51.44	523.802
51.46	505.74
51.48	307.056
51.5	487.678
51.52	252.87
51.54	252.87
51.56	288.994
51.58	270.932
51.6	288.994
51.62	307.056
51.64	270.932
51.66	325.119
51.68	469.616
51.7	397.367
51.72	433.492
51.74	361.243
51.76	433.492
51.78	307.056
51.8	234.808
51.82	180.621
51.84	469.616
51.86	523.802
51.88	469.616
51.9	379.305
51.92	415.429
51.94	361.243
51.96	505.74
51.98	523.802
52	379.305
52.02	415.429
52.04	487.678
52.06	577.989
52.08	451.554
52.1	343.181
52.12	325.119
52.14	505.74
52.16	325.119
52.18	361.243
52.2	307.056
52.22	343.181
52.24	361.243
52.26	379.305
52.28	325.119
52.3	343.181
52.32	270.932
52.34	234.808
52.36	325.119
52.38	325.119
52.4	415.429
52.42	379.305
52.44	288.994
52.46	433.492
52.48	307.056
52.5	343.181
52.52	252.87
52.54	361.243
52.56	469.616
52.58	252.87
52.6	343.181
52.62	234.808
52.64	252.87
52.66	415.429
52.68	541.864
52.7	523.802
52.72	451.554
52.74	325.119
52.76	307.056
52.78	632.175
52.8	379.305
52.82	162.559
52.84	252.87
52.86	307.056
52.88	379.305
52.9	397.367
52.92	343.181
52.94	361.243
52.96	433.492
52.98	343.181
53	433.492
53.02	307.056
53.04	216.746
53.06	307.056
53.08	252.87
53.1	252.87
53.12	469.616
53.14	325.119
53.16	361.243
53.18	234.808
53.2	252.87
53.22	451.554
53.24	433.492
53.26	487.678
53.28	288.994
53.3	379.305
53.32	361.243
53.34	379.305
53.36	361.243
53.38	343.181
53.4	361.243
53.42	343.181
53.44	469.616
53.46	469.616
53.48	343.181
53.5	216.746
53.52	216.746
53.54	379.305
53.56	198.684
53.58	307.056
53.6	234.808
53.62	252.87
53.64	234.808
53.66	343.181
53.68	198.684
53.7	270.932
53.72	288.994
53.74	288.994
53.76	397.367
53.78	288.994
53.8	288.994
53.82	162.559
53.84	234.808
53.86	162.559
53.88	307.056
53.9	307.056
53.92	288.994
53.94	361.243
53.96	361.243
53.98	307.056
54	397.367
54.02	415.429
54.04	397.367
54.06	469.616
54.08	325.119
54.1	379.305
54.12	379.305
54.14	469.616
54.16	433.492
54.18	469.616
54.2	541.864
54.22	415.429
54.24	577.989
54.26	523.802
54.28	415.429
54.3	433.492
54.32	451.554
54.34	614.113
54.36	523.802
54.38	577.989
54.4	559.927
54.42	451.554
54.44	397.367
54.46	505.74
54.48	415.429
54.5	451.554
54.52	541.864
54.54	343.181
54.56	307.056
54.58	270.932
54.6	361.243
54.62	252.87
54.64	361.243
54.66	234.808
54.68	361.243
54.7	234.808
54.72	252.87
54.74	379.305
54.76	451.554
54.78	415.429
54.8	361.243
54.82	288.994
54.84	325.119
54.86	252.87
54.88	325.119
54.9	325.119
54.92	451.554
54.94	343.181
54.96	379.305
54.98	361.243
55	433.492
55.02	234.808
55.04	343.181
55.06	252.87
55.08	325.119
55.1	307.056
55.12	270.932
55.14	252.87
55.16	288.994
55.18	198.684
55.2	180.621
55.22	325.119
55.24	288.994
55.26	198.684
55.28	288.994
55.3	343.181
55.32	234.808
55.34	180.621
55.36	162.559
55.38	216.746
55.4	325.119
55.42	361.243
55.44	307.056
55.46	252.87
55.48	252.87
55.5	234.808
55.52	180.621
55.54	361.243
55.56	270.932
55.58	234.808
55.6	288.994
55.62	343.181
55.64	343.181
55.66	325.119
55.68	379.305
55.7	505.74
55.72	307.056
55.74	343.181
55.76	397.367
55.78	541.864
55.8	397.367
55.82	577.989
55.84	379.305
55.86	343.181
55.88	325.119
55.9	307.056
55.92	451.554
55.94	343.181
55.96	343.181
55.98	397.367
56	288.994
56.02	307.056
56.04	180.621
56.06	379.305
56.08	361.243
56.1	397.367
56.12	216.746
56.14	343.181
56.16	270.932
56.18	216.746
56.2	343.181
56.22	307.056
56.24	252.87
56.26	379.305
56.28	270.932
56.3	433.492
56.32	397.367
56.34	379.305
56.36	288.994
56.38	307.056
56.4	343.181
56.42	343.181
56.44	361.243
56.46	379.305
56.48	379.305
56.5	343.181
56.52	559.927
56.54	307.056
56.56	379.305
56.58	307.056
56.6	433.492
56.62	415.429
56.64	379.305
56.66	325.119
56.68	270.932
56.7	307.056
56.72	397.367
56.74	361.243
56.76	325.119
56.78	325.119
56.8	559.927
56.82	288.994
56.84	451.554
56.86	307.056
56.88	343.181
56.9	433.492
56.92	216.746
56.94	270.932
56.96	270.932
56.98	361.243
57	198.684
57.02	252.87
57.04	307.056
57.06	198.684
57.08	162.559
57.1	343.181
57.12	307.056
57.14	325.119
57.16	234.808
57.18	288.994
57.2	234.808
57.22	288.994
57.24	198.684
57.26	180.621
57.28	234.808
57.3	234.808
57.32	234.808
57.34	361.243
57.36	307.056
57.38	307.056
57.4	198.684
57.42	252.87
57.44	288.994
57.46	343.181
57.48	252.87
57.5	252.87
57.52	234.808
57.54	288.994
57.56	307.056
57.58	379.305
57.6	325.119
57.62	451.554
57.64	325.119
57.66	270.932
57.68	325.119
57.7	234.808
57.72	270.932
57.74	252.87
57.76	325.119
57.78	270.932
57.8	252.87
57.82	234.808
57.84	343.181
57.86	234.808
57.88	216.746
57.9	252.87
57.92	234.808
57.94	397.367
57.96	288.994
57.98	252.87
58	343.181
58.02	379.305
58.04	234.808
58.06	379.305
58.08	270.932
58.1	361.243
58.12	234.808
58.14	307.056
58.16	234.808
58.18	90.3107
58.2	270.932
58.22	252.87
58.24	325.119
58.26	415.429
58.28	325.119
58.3	361.243
58.32	307.056
58.34	162.559
58.36	270.932
58.38	325.119
58.4	270.932
58.42	379.305
58.44	180.621
58.46	361.243
58.48	288.994
58.5	451.554
58.52	361.243
58.54	144.497
58.56	397.367
58.58	234.808
58.6	307.056
58.62	397.367
58.64	252.87
58.66	397.367
58.68	307.056
58.7	216.746
58.72	180.621
58.74	397.367
58.76	198.684
58.78	343.181
58.8	307.056
58.82	234.808
58.84	270.932
58.86	234.808
58.88	144.497
58.9	270.932
58.92	523.802
58.94	307.056
58.96	270.932
58.98	343.181
59	234.808
59.02	234.808
59.04	270.932
59.06	325.119
59.08	343.181
59.1	234.808
59.12	451.554
59.14	343.181
59.16	288.994
59.18	234.808
59.2	325.119
59.22	361.243
59.24	361.243
59.26	307.056
59.28	397.367
59.3	361.243
59.32	433.492
59.34	343.181
59.36	415.429
59.38	397.367
59.4	288.994
59.42	343.181
59.44	379.305
59.46	216.746
59.48	343.181
59.5	325.119
59.52	325.119
59.54	216.746
59.56	379.305
59.58	343.181
59.6	433.492
59.62	379.305
59.64	541.864
59.66	270.932
59.68	288.994
59.7	397.367
59.72	505.74
59.74	433.492
59.76	487.678
59.78	361.243
59.8	379.305
59.82	415.429
59.84	343.181
59.86	216.746
59.88	379.305
59.9	361.243
59.92	307.056
59.94	270.932
59.96	325.119
59.98	307.056
60	234.808
