Sample	 
Comments	 
Filename	C:\Data\西出研\梅木\20211102オペ\ベッセル\LiFTFSI_2θ_θ.raw
Goniometer	SmartLab(In-plane)
Attachment	Zステージ単独
Monochromater	None
X	0
Y	0
Z	0.02762
ScanningMode	2Theta/Theta
ScanningType	Continuos Scanning
X-Ray	40kV/30mA
入射スリット	2/3deg
受光スリット1	20.000mm
受光スリット2	20.000mm
Cu_K-beta	
Start	5
Stop	60
Step	0.02
Speed	21.6746
Offset	0
5	47539.6
5.02	50844.9
5.04	49002.6
5.06	46184.9
5.08	47557.6
5.1	44649.6
5.12	44848.3
5.14	42048.7
5.16	42608.6
5.18	41253.9
5.2	39700.6
5.22	39809
5.24	38833.6
5.26	37551.2
5.28	37244.1
5.3	36557.8
5.32	34697.4
5.34	34354.2
5.36	34462.6
5.38	32096.4
5.4	31735.2
5.42	32078.4
5.44	32313.2
5.46	30109.6
5.48	29676.1
5.5	31265.6
5.52	31121.1
5.54	29495.5
5.56	29856.7
5.58	30055.4
5.6	28700.8
5.62	29621.9
5.64	28122.8
5.66	28754.9
5.68	26894.5
5.7	27869.9
5.72	26515.2
5.74	28628.5
5.76	27526.7
5.78	28357.6
5.8	27400.3
5.82	27039
5.84	27743.5
5.86	26479.1
5.88	27273.8
5.9	27797.6
5.92	26461
5.94	26551.4
5.96	26424.9
5.98	27508.7
6	27382.2
6.02	27472.5
6.04	26154
6.06	25431.5
6.08	25955.3
6.1	26226.2
6.12	27707.3
6.14	26497.2
6.16	27526.7
6.18	26262.4
6.2	25955.3
6.22	26497.2
6.24	26316.5
6.26	26533.3
6.28	25774.7
6.3	26316.5
6.32	26334.6
6.34	27021
6.36	26226.2
6.38	26840.3
6.4	25413.4
6.42	25738.6
6.44	25774.7
6.46	26984.8
6.48	26406.9
6.5	25576
6.52	26984.8
6.54	27400.3
6.56	25521.8
6.58	26443
6.6	27183.5
6.62	26804.2
6.64	25865
6.66	26208.2
6.68	25846.9
6.7	26587.5
6.72	27743.5
6.74	25810.8
6.76	26334.6
6.78	25539.9
6.8	25774.7
6.82	25034.1
6.84	25323.1
6.86	25485.7
6.88	24835.5
6.9	25865
6.92	26659.7
6.94	25016.1
6.96	25431.5
6.98	24853.5
7	26388.8
7.02	26786.2
7.04	24799.3
7.06	25377.3
7.08	26063.7
7.1	25576
7.12	27346.1
7.14	24907.7
7.16	25774.7
7.18	25305.1
7.2	26045.6
7.22	25070.3
7.24	25359.3
7.26	25485.7
7.28	24925.8
7.3	25774.7
7.32	24492.3
7.34	25955.3
7.36	25955.3
7.38	25539.9
7.4	25106.4
7.42	25088.3
7.44	25070.3
7.46	25268.9
7.48	25666.3
7.5	25539.9
7.52	24835.5
7.54	25485.7
7.56	25305.1
7.58	25142.5
7.6	24582.6
7.62	24113
7.64	25359.3
7.66	25919.2
7.68	24257.5
7.7	24799.3
7.72	24727.1
7.74	24185.2
7.76	24745.1
7.78	25214.8
7.8	24618.7
7.82	26587.5
7.84	25323.1
7.86	24925.8
7.88	24365.8
7.9	24871.6
7.92	24402
7.94	24383.9
7.96	24365.8
7.98	25413.4
8	24347.8
8.02	25106.4
8.04	24420
8.06	24672.9
8.08	23733.7
8.1	24185.2
8.12	24781.3
8.14	24709
8.16	24167.2
8.18	24221.3
8.2	24907.7
8.22	24600.6
8.24	24058.8
8.26	24438.1
8.28	24094.9
8.3	23914.3
8.32	24420
8.34	24420
8.36	24727.1
8.38	24149.1
8.4	25142.5
8.42	23896.2
8.44	25088.3
8.46	23625.3
8.48	24492.3
8.5	23697.5
8.52	24040.7
8.54	23643.3
8.56	24004.6
8.58	24149.1
8.6	24871.6
8.62	24474.2
8.64	23209.9
8.66	23878.2
8.68	24094.9
8.7	23101.5
8.72	23896.2
8.74	24058.8
8.76	24654.8
8.78	24203.3
8.8	23878.2
8.82	24781.3
8.84	24149.1
8.86	24420
8.88	23878.2
8.9	24582.6
8.92	23354.4
8.94	23769.8
8.96	24636.8
8.98	25106.4
9	23950.4
9.02	24275.5
9.04	25034.1
9.06	24239.4
9.08	23571.1
9.1	24347.8
9.12	25630.2
9.14	25196.7
9.16	24763.2
9.18	25756.6
9.2	27057.1
9.22	25901.1
9.24	27815.7
9.26	28393.7
9.28	29134.2
9.3	28285.3
9.32	27544.8
9.34	26479.1
9.36	23842
9.38	24149.1
9.4	23787.8
9.42	23246
9.44	23535
9.46	23336.3
9.48	22704.1
9.5	23535
9.52	23516.9
9.54	23318.2
9.56	23227.9
9.58	22342.9
9.6	23336.3
9.62	23679.5
9.64	22993.1
9.66	22071.9
9.68	22415.1
9.7	22017.8
9.72	22397.1
9.74	22180.3
9.76	23643.3
9.78	22812.5
9.8	23047.3
9.82	23191.8
9.84	22541.6
9.86	22577.7
9.88	22071.9
9.9	22180.3
9.92	21764.9
9.94	23173.7
9.96	23715.6
9.98	23444.7
10	22668
10.02	21530.1
10.04	22108.1
10.06	22776.4
10.08	22595.7
10.1	22108.1
10.12	21168.8
10.14	22776.4
10.16	22884.7
10.18	22559.6
10.2	22252.6
10.22	21512
10.24	22505.4
10.26	22216.4
10.28	22216.4
10.3	21819.1
10.32	22397.1
10.34	21620.4
10.36	22071.9
10.38	21710.7
10.4	22631.9
10.42	22758.3
10.44	21205
10.46	22252.6
10.48	21259.1
10.5	22053.9
10.52	21584.3
10.54	21186.9
10.56	22668
10.58	22288.7
10.6	21602.3
10.62	21331.4
10.64	21168.8
10.66	22776.4
10.68	22270.6
10.7	22180.3
10.72	21512
10.74	21819.1
10.76	20554.7
10.78	21692.6
10.8	21512
10.82	21494
10.84	21746.8
10.86	21764.9
10.88	20952.1
10.9	22324.8
10.92	22234.5
10.94	21349.5
10.96	21042.4
10.98	20319.9
11	21403.6
11.02	21728.8
11.04	20175.4
11.06	22451.2
11.08	20283.8
11.1	22397.1
11.12	20446.3
11.14	21764.9
11.16	20663.1
11.18	20861.8
11.2	21620.4
11.22	21873.3
11.24	21403.6
11.26	20536.7
11.28	21837.1
11.3	21945.5
11.32	22234.5
11.34	21205
11.36	21638.5
11.38	21367.5
11.4	20879.8
11.42	21439.8
11.44	20572.8
11.46	21981.6
11.48	21530.1
11.5	21168.8
11.52	21439.8
11.54	19922.5
11.56	21494
11.58	21060.5
11.6	20229.6
11.62	20012.9
11.64	21186.9
11.66	20518.6
11.68	20861.8
11.7	21548.1
11.72	20681.2
11.74	20265.7
11.76	21186.9
11.78	20699.2
11.8	20735.3
11.82	20356
11.84	21078.5
11.86	20049
11.88	20157.4
11.9	20554.7
11.92	20861.8
11.94	20807.6
11.96	21403.6
11.98	20572.8
12	20410.2
12.02	20030.9
12.04	20265.7
12.06	20428.3
12.08	21259.1
12.1	20627
12.12	20121.2
12.14	20446.3
12.16	20681.2
12.18	20428.3
12.2	18838.8
12.22	20681.2
12.24	20934
12.26	20789.5
12.28	20482.5
12.3	20608.9
12.32	20825.7
12.34	20879.8
12.36	20247.7
12.38	20572.8
12.4	20410.2
12.42	20934
12.44	21782.9
12.46	22505.4
12.48	21746.8
12.5	23011.2
12.52	22469.3
12.54	22252.6
12.56	21205
12.58	22144.2
12.6	21530.1
12.62	21313.3
12.64	20934
12.66	19362.6
12.68	20067
12.7	20139.3
12.72	19109.8
12.74	20157.4
12.76	20446.3
12.78	20067
12.8	19832.2
12.82	18549.8
12.84	20825.7
12.86	20645
12.88	19073.6
12.9	19452.9
12.92	19308.4
12.94	19362.6
12.96	20049
12.98	19850.3
13	19362.6
13.02	19615.5
13.04	18622.1
13.06	19976.7
13.08	19597.4
13.1	19940.6
13.12	20157.4
13.14	18965.3
13.16	18856.9
13.18	19019.4
13.2	18098.3
13.22	18983.3
13.24	19796.1
13.26	19398.7
13.28	19452.9
13.3	19037.5
13.32	19796.1
13.34	20229.6
13.36	19940.6
13.38	19308.4
13.4	19452.9
13.42	19073.6
13.44	19001.4
13.46	20229.6
13.48	18784.6
13.5	18387.3
13.52	19290.4
13.54	18604
13.56	18730.4
13.58	18820.8
13.6	19290.4
13.62	20807.6
13.64	17881.5
13.66	19760
13.68	19741.9
13.7	19127.8
13.72	18297
13.74	19308.4
13.76	18098.3
13.78	19561.3
13.8	18441.5
13.82	19416.8
13.84	19326.5
13.86	18802.7
13.88	20157.4
13.9	18513.7
13.92	19218.1
13.94	18676.3
13.96	18242.8
13.98	19109.8
14	18658.2
14.02	18676.3
14.04	19362.6
14.06	18513.7
14.08	18459.5
14.1	18080.2
14.12	18604
14.14	19398.7
14.16	18242.8
14.18	17791.2
14.2	18622.1
14.22	19904.5
14.24	18477.6
14.26	18351.1
14.28	18838.8
14.3	19796.1
14.32	18459.5
14.34	19344.6
14.36	19380.7
14.38	18098.3
14.4	18622.1
14.42	19272.3
14.44	19489.1
14.46	19019.4
14.48	18062.1
14.5	18856.9
14.52	18965.3
14.54	18965.3
14.56	18766.6
14.58	18242.8
14.6	18152.5
14.62	18640.1
14.64	18062.1
14.66	18585.9
14.68	18911.1
14.7	18947.2
14.72	17719
14.74	19019.4
14.76	17917.7
14.78	18116.3
14.8	18640.1
14.82	18784.6
14.84	18477.6
14.86	19380.7
14.88	18838.8
14.9	19019.4
14.92	18567.9
14.94	19760
14.96	19452.9
14.98	18748.5
15	19218.1
15.02	18893
15.04	20518.6
15.06	20121.2
15.08	20319.9
15.1	20319.9
15.12	20753.4
15.14	20410.2
15.16	19778.1
15.18	18983.3
15.2	19145.9
15.22	18838.8
15.24	18152.5
15.26	18676.3
15.28	17321.6
15.3	17213.2
15.32	17592.5
15.34	17935.7
15.36	19055.6
15.38	17917.7
15.4	18477.6
15.42	17411.9
15.44	17719
15.46	18315
15.48	18080.2
15.5	18297
15.52	17700.9
15.54	17484.2
15.56	16653.3
15.58	17917.7
15.6	18369.2
15.62	17267.4
15.64	18549.8
15.66	18062.1
15.68	18260.8
15.7	17628.7
15.72	17303.5
15.74	18134.4
15.76	18315
15.78	18531.8
15.8	18297
15.82	18224.7
15.84	18242.8
15.86	18712.4
15.88	20428.3
15.9	20356
15.92	19850.3
15.94	19994.8
15.96	20482.5
15.98	21692.6
16	24528.4
16.02	24239.4
16.04	25106.4
16.06	27364.2
16.08	29080.1
16.1	30886.3
16.12	31121.1
16.14	31175.3
16.16	29459.4
16.18	26533.3
16.2	23697.5
16.22	20807.6
16.24	18748.5
16.26	18802.7
16.28	18098.3
16.3	17719
16.32	17393.8
16.34	18260.8
16.36	18297
16.38	16653.3
16.4	17159
16.42	15985
16.44	16906.2
16.46	17466.1
16.48	17177.1
16.5	16942.3
16.52	17177.1
16.54	16436.6
16.56	17249.3
16.58	17556.4
16.6	17050.7
16.62	17411.9
16.64	18477.6
16.66	18170.5
16.68	18116.3
16.7	17538.3
16.72	17068.7
16.74	17556.4
16.76	18676.3
16.78	18242.8
16.8	18116.3
16.82	17249.3
16.84	17863.5
16.86	18585.9
16.88	17466.1
16.9	16888.1
16.92	17249.3
16.94	16346.2
16.96	16779.7
16.98	16942.3
17	16075.3
17.02	16292.1
17.04	17773.2
17.06	16129.5
17.08	16346.2
17.1	17141
17.12	17213.2
17.14	17122.9
17.16	17231.3
17.18	17448
17.2	16508.8
17.22	16870
17.24	16852
17.26	16039.2
17.28	17881.5
17.3	16707.5
17.32	17050.7
17.34	16093.4
17.36	17213.2
17.38	16743.6
17.4	17538.3
17.42	16472.7
17.44	16635.2
17.46	17321.6
17.48	16779.7
17.5	16274
17.52	16075.3
17.54	16779.7
17.56	17104.9
17.58	17104.9
17.6	16599.1
17.62	16888.1
17.64	16689.4
17.66	16364.3
17.68	18008
17.7	17285.5
17.72	17321.6
17.74	17430
17.76	17592.5
17.78	17700.9
17.8	18856.9
17.82	19561.3
17.84	19633.6
17.86	20085.1
17.88	23516.9
17.9	23625.3
17.92	26569.4
17.94	28267.3
17.96	32548
17.98	33559.5
18	36214.6
18.02	37479
18.04	38671.1
18.06	35383.7
18.08	33035.7
18.1	28935.6
18.12	24022.7
18.14	21277.2
18.16	18531.8
18.18	18351.1
18.2	17700.9
18.22	17574.5
18.24	18640.1
18.26	19543.2
18.28	19145.9
18.3	19579.4
18.32	21313.3
18.34	21403.6
18.36	23101.5
18.38	25919.2
18.4	28213.1
18.42	30055.4
18.44	34751.6
18.46	40368.9
18.48	47214.5
18.5	55053.4
18.52	64951.5
18.54	79708.3
18.56	94573.4
18.58	108517
18.6	121558
18.62	142655
18.64	152770
18.66	156075
18.68	141138
18.7	109168
18.72	78425.8
18.74	54457.4
18.76	34769.6
18.78	25052.2
18.8	21746.8
18.82	20356
18.84	18315
18.86	18297
18.88	17375.8
18.9	17773.2
18.92	17682.8
18.94	17122.9
18.96	17375.8
18.98	16833.9
19	16870
19.02	17971.8
19.04	17989.9
19.06	18441.5
19.08	18658.2
19.1	18260.8
19.12	18911.1
19.14	20193.5
19.16	21782.9
19.18	24149.1
19.2	26750
19.22	28881.4
19.24	32475.7
19.26	35781.1
19.28	36792.6
19.3	37063.5
19.32	36539.7
19.34	36846.8
19.36	31861.6
19.38	27490.6
19.4	21963.6
19.42	20590.8
19.44	18260.8
19.46	16093.4
19.48	16093.4
19.5	15298.6
19.52	15298.6
19.54	15840.5
19.56	14449.7
19.58	14738.7
19.6	14449.7
19.62	14666.5
19.64	14612.3
19.66	14251
19.68	14233
19.7	16219.8
19.72	15154.1
19.74	15334.8
19.76	14684.5
19.78	14648.4
19.8	15100
19.82	14919.3
19.84	14377.5
19.86	14052.4
19.88	15298.6
19.9	14901.3
19.92	15154.1
19.94	15298.6
19.96	15063.8
19.98	15840.5
20	16093.4
20.02	16147.6
20.04	17556.4
20.06	18748.5
20.08	17538.3
20.1	19344.6
20.12	18351.1
20.14	18730.4
20.16	18423.4
20.18	16924.2
20.2	16508.8
20.22	16057.2
20.24	14052.4
20.26	14178.8
20.28	13022.8
20.3	13925.9
20.32	14305.2
20.34	14558.1
20.36	13149.2
20.38	14612.3
20.4	13944
20.42	12986.7
20.44	12860.2
20.46	13510.5
20.48	14792.9
20.5	14178.8
20.52	13944
20.54	13402.1
20.56	13546.6
20.58	13582.7
20.6	13366
20.62	13998.2
20.64	13781.4
20.66	13528.5
20.68	14774.8
20.7	14666.5
20.72	14485.8
20.74	13420.2
20.76	14467.8
20.78	13727.2
20.8	13889.8
20.82	14395.5
20.84	16075.3
20.86	14919.3
20.88	16978.4
20.9	16581.1
20.92	18748.5
20.94	20157.4
20.96	23282.1
20.98	25268.9
21	28863.3
21.02	31681
21.04	33974.9
21.06	38075
21.08	38797.5
21.1	39520
21.12	38634.9
21.14	36485.5
21.16	30326.3
21.18	25738.6
21.2	20211.5
21.22	17014.5
21.24	15515.4
21.26	14919.3
21.28	14034.3
21.3	14323.3
21.32	14233
21.34	13564.7
21.36	14160.7
21.38	13058.9
21.4	12733.8
21.42	12697.7
21.44	12679.6
21.46	13492.4
21.48	13600.8
21.5	12715.8
21.52	12788
21.54	13474.4
21.56	12264.2
21.58	12390.6
21.6	13618.9
21.62	13944
21.64	13745.3
21.66	14467.8
21.68	14359.4
21.7	14666.5
21.72	16147.6
21.74	16310.1
21.76	16725.5
21.78	17989.9
21.8	18531.8
21.82	19615.5
21.84	19001.4
21.86	18134.4
21.88	18188.6
21.9	16472.7
21.92	15208.3
21.94	14142.7
21.96	12733.8
21.98	12444.8
22	12607.4
22.02	12083.6
22.04	13528.5
22.06	12769.9
22.08	12372.6
22.1	11866.8
22.12	12625.4
22.14	12408.7
22.16	11848.8
22.18	11523.6
22.2	12751.9
22.22	13564.7
22.24	11993.3
22.26	12444.8
22.28	13275.7
22.3	11866.8
22.32	11668.1
22.34	11704.3
22.36	12733.8
22.38	12517.1
22.4	12517.1
22.42	11794.6
22.44	11957.1
22.46	11451.4
22.48	12173.9
22.5	11975.2
22.52	12390.6
22.54	12860.2
22.56	13058.9
22.58	12589.3
22.6	12336.4
22.62	11866.8
22.64	12806.1
22.66	13040.9
22.68	13871.7
22.7	13600.8
22.72	13727.2
22.74	13673
22.76	13709.2
22.78	13709.2
22.8	13239.6
22.82	13131.2
22.84	14142.7
22.86	12932.5
22.88	12444.8
22.9	12968.6
22.92	13257.6
22.94	12462.9
22.96	13329.9
22.98	11957.1
23	13799.5
23.02	13347.9
23.04	13022.8
23.06	14214.9
23.08	15280.6
23.1	14684.5
23.12	15930.8
23.14	15822.4
23.16	16418.5
23.18	17375.8
23.2	18170.5
23.22	19001.4
23.24	18242.8
23.26	18820.8
23.28	19182
23.3	18008
23.32	17249.3
23.34	17430
23.36	16310.1
23.38	16815.9
23.4	16346.2
23.42	17285.5
23.44	17755.1
23.46	17430
23.48	15154.1
23.5	15894.7
23.52	14720.6
23.54	13167.3
23.56	12210
23.58	13185.4
23.6	12517.1
23.62	11595.9
23.64	11650.1
23.66	11343
23.68	11884.9
23.7	11595.9
23.72	11957.1
23.74	11614
23.76	11577.8
23.78	11595.9
23.8	11451.4
23.82	11126.3
23.84	10783.1
23.86	10873.4
23.88	11921
23.9	12155.8
23.92	11650.1
23.94	11848.8
23.96	12155.8
23.98	11270.8
24	11668.1
24.02	12101.6
24.04	10891.5
24.06	11794.6
24.08	11433.3
24.1	11614
24.12	10981.8
24.14	11270.8
24.16	11632
24.18	11126.3
24.2	11614
24.22	11126.3
24.24	11198.5
24.26	11632
24.28	11487.5
24.3	11017.9
24.32	11830.7
24.34	11361.1
24.36	11632
24.38	11505.6
24.4	11252.7
24.42	11433.3
24.44	11469.5
24.46	11614
24.48	10747
24.5	10927.6
24.52	10710.9
24.54	10494.1
24.56	11921
24.58	11144.3
24.6	11090.2
24.62	11921
24.64	11686.2
24.66	11577.8
24.68	11325
24.7	10927.6
24.72	12065.5
24.74	12264.2
24.76	11325
24.78	10837.3
24.8	11288.8
24.82	12065.5
24.84	11993.3
24.86	12462.9
24.88	12480.9
24.9	12047.5
24.92	12011.3
24.94	12300.3
24.96	11921
24.98	11921
25	12228.1
25.02	12336.4
25.04	12173.9
25.06	12029.4
25.08	12842.2
25.1	12643.5
25.12	11740.4
25.14	12788
25.16	13438.2
25.18	13835.6
25.2	15370.9
25.22	14937.4
25.24	16147.6
25.26	15226.4
25.28	16183.7
25.3	17303.5
25.32	17177.1
25.34	16833.9
25.36	17014.5
25.38	18802.7
25.4	17430
25.42	19814.2
25.44	20030.9
25.46	20193.5
25.48	20301.9
25.5	20229.6
25.52	20572.8
25.54	20771.5
25.56	24709
25.58	27869.9
25.6	32692.5
25.62	37262.2
25.64	44902.5
25.66	50971.4
25.68	60309.5
25.7	67462.1
25.72	74885.7
25.74	80250.1
25.76	80214
25.78	76457.1
25.8	67046.7
25.82	55505
25.84	41253.9
25.86	33902.6
25.88	25160.6
25.9	19145.9
25.92	15786.3
25.94	15370.9
25.96	13817.5
25.98	13329.9
26	12643.5
26.02	11379.2
26.04	11957.1
26.06	12083.6
26.08	12842.2
26.1	12155.8
26.12	12372.6
26.14	12697.7
26.16	12444.8
26.18	12661.6
26.2	13528.5
26.22	13618.9
26.24	16093.4
26.26	15316.7
26.28	16653.3
26.3	18405.3
26.32	18929.1
26.34	21512
26.36	21692.6
26.38	20861.8
26.4	20879.8
26.42	19597.4
26.44	17086.8
26.46	15515.4
26.48	13691.1
26.5	13835.6
26.52	12137.8
26.54	12426.8
26.56	12029.4
26.58	12860.2
26.6	12751.9
26.62	13655
26.64	13040.9
26.66	13817.5
26.68	13420.2
26.7	13727.2
26.72	14305.2
26.74	12824.1
26.76	13293.7
26.78	12318.4
26.8	11686.2
26.82	11614
26.84	11975.2
26.86	11072.1
26.88	11325
26.9	10909.5
26.92	10187.1
26.94	10295.4
26.96	10620.5
26.98	11162.4
27	10566.4
27.02	11415.3
27.04	10494.1
27.06	10223.2
27.08	10692.8
27.1	10277.4
27.12	10150.9
27.14	10187.1
27.16	10728.9
27.18	10801.2
27.2	11469.5
27.22	11415.3
27.24	11126.3
27.26	11577.8
27.28	12426.8
27.3	12788
27.32	12878.3
27.34	13456.3
27.36	13131.2
27.38	15298.6
27.4	17592.5
27.42	19633.6
27.44	21837.1
27.46	26894.5
27.48	30254.1
27.5	34986.4
27.52	38400.1
27.54	40495.3
27.56	43638.1
27.58	43511.7
27.6	39285.2
27.62	33270.5
27.64	29369.1
27.66	24889.6
27.68	19832.2
27.7	16797.8
27.72	15100
27.74	13817.5
27.76	13582.7
27.78	12517.1
27.8	12950.6
27.82	11993.3
27.84	10999.8
27.86	11505.6
27.88	12155.8
27.9	12011.3
27.92	12300.3
27.94	12300.3
27.96	12535.1
27.98	14287.2
28	14973.5
28.02	15858.6
28.04	17249.3
28.06	17863.5
28.08	20735.3
28.1	22216.4
28.12	24058.8
28.14	25250.9
28.16	23444.7
28.18	21223
28.2	19705.8
28.22	17014.5
28.24	16274
28.26	12824.1
28.28	12426.8
28.3	11090.2
28.32	10981.8
28.34	10241.2
28.36	10349.6
28.38	10421.9
28.4	9356.19
28.42	10078.7
28.44	9410.38
28.46	9067.2
28.48	10530.2
28.5	10331.5
28.52	9663.25
28.54	9518.75
28.56	8832.39
28.58	9283.94
28.6	9536.81
28.62	10096.7
28.64	10024.5
28.66	10024.5
28.68	9898.06
28.7	10042.6
28.72	9175.57
28.74	10548.3
28.76	10602.5
28.78	11270.8
28.8	9771.62
28.82	9988.37
28.84	10313.5
28.86	9464.57
28.88	10584.4
28.9	10855.4
28.92	10349.6
28.94	10963.7
28.96	10909.5
28.98	10150.9
29	9500.69
29.02	10150.9
29.04	9500.69
29.06	9265.88
29.08	9753.56
29.1	9627.12
29.12	10096.7
29.14	9681.31
29.16	10042.6
29.18	10241.2
29.2	9518.75
29.22	8976.89
29.24	9283.94
29.26	10331.5
29.28	9735.5
29.3	8958.83
29.32	8958.83
29.34	9247.82
29.36	9392.32
29.38	9392.32
29.4	9518.75
29.42	8705.96
29.44	10150.9
29.46	9735.5
29.48	9464.57
29.5	9482.63
29.52	9175.57
29.54	9157.51
29.56	10042.6
29.58	9518.75
29.6	9988.37
29.62	9843.87
29.64	10060.6
29.66	9934.18
29.68	9663.25
29.7	9753.56
29.72	9771.62
29.74	10421.9
29.76	10187.1
29.78	9356.19
29.8	9482.63
29.82	9157.51
29.84	9609.06
29.86	10710.9
29.88	9898.06
29.9	10277.4
29.92	10223.2
29.94	11668.1
29.96	11343
29.98	11812.6
30	13167.3
30.02	13438.2
30.04	15118
30.06	15533.4
30.08	16888.1
30.1	17411.9
30.12	19145.9
30.14	18694.3
30.16	18044.1
30.18	15876.6
30.2	13727.2
30.22	13095.1
30.24	11632
30.26	11270.8
30.28	10331.5
30.3	9591
30.32	9952.24
30.34	10241.2
30.36	9807.75
30.38	10205.1
30.4	9735.5
30.42	10006.4
30.44	9879.99
30.46	10548.3
30.48	10349.6
30.5	10891.5
30.52	11126.3
30.54	11577.8
30.56	11325
30.58	10765
30.6	10999.8
30.62	10873.4
30.64	9771.62
30.66	10169
30.68	9753.56
30.7	9591
30.72	9536.81
30.74	8633.71
30.76	9554.88
30.78	8742.08
30.8	9175.57
30.82	9699.37
30.84	9320.07
30.86	9861.93
30.88	10132.9
30.9	10494.1
30.92	10331.5
30.94	11559.8
30.96	10963.7
30.98	10476
31	10584.4
31.02	9356.19
31.04	9898.06
31.06	9446.5
31.08	8543.4
31.1	8633.71
31.12	9085.26
31.14	8579.52
31.16	8904.64
31.18	8398.9
31.2	8940.76
31.22	8290.53
31.24	8525.33
31.26	9410.38
31.28	9374.25
31.3	8742.08
31.32	8398.9
31.34	9229.76
31.36	9175.57
31.38	10349.6
31.4	8814.33
31.42	9988.37
31.44	10367.7
31.46	10873.4
31.48	10078.7
31.5	10259.3
31.52	11577.8
31.54	10313.5
31.56	9464.57
31.58	9753.56
31.6	9518.75
31.62	10114.8
31.64	9952.24
31.66	9103.32
31.68	9175.57
31.7	10114.8
31.72	9952.24
31.74	9825.81
31.76	9681.31
31.78	9645.19
31.8	9536.81
31.82	9013.01
31.84	8525.33
31.86	8976.89
31.88	8904.64
31.9	8796.27
31.92	8814.33
31.94	8760.14
31.96	9175.57
31.98	8742.08
32	8796.27
32.02	7531.92
32.04	9175.57
32.06	8940.76
32.08	8615.64
32.1	7640.29
32.12	8651.77
32.14	8778.2
32.16	9265.88
32.18	9302.01
32.2	8200.21
32.22	9302.01
32.24	9121.38
32.26	8832.39
32.28	9446.5
32.3	8976.89
32.32	9320.07
32.34	9374.25
32.36	10042.6
32.38	10656.7
32.4	10981.8
32.42	11884.9
32.44	12065.5
32.46	14142.7
32.48	13763.4
32.5	14124.6
32.52	14612.3
32.54	15172.2
32.56	13275.7
32.58	12986.7
32.6	12282.3
32.62	12842.2
32.64	11234.7
32.66	10512.2
32.68	10024.5
32.7	10169
32.72	9807.75
32.74	10439.9
32.76	10801.2
32.78	11162.4
32.8	11541.7
32.82	14088.5
32.84	15894.7
32.86	17610.6
32.88	19254.2
32.9	21186.9
32.92	24781.3
32.94	27761.5
32.96	31048.8
32.98	33505.3
33	35167
33.02	36919
33.04	34372.3
33.06	32096.4
33.08	25648.2
33.1	23986.5
33.12	22686.1
33.14	19760
33.16	17682.8
33.18	15497.3
33.2	14503.9
33.22	14702.6
33.24	15696
33.26	14901.3
33.28	15948.9
33.3	14973.5
33.32	12968.6
33.34	12986.7
33.36	11758.5
33.38	10187.1
33.4	10728.9
33.42	9717.43
33.44	7893.16
33.46	9482.63
33.48	8976.89
33.5	8615.64
33.52	7929.28
33.54	8507.27
33.56	8976.89
33.58	8453.08
33.6	8146.03
33.62	9681.31
33.64	7857.03
33.66	8182.15
33.68	8001.53
33.7	8471.15
33.72	8669.83
33.74	8669.83
33.76	8326.65
33.78	8922.7
33.8	8326.65
33.82	9645.19
33.84	9013.01
33.86	9663.25
33.88	10024.5
33.9	10349.6
33.92	10999.8
33.94	11108.2
33.96	11072.1
33.98	11487.5
34	12896.4
34.02	12065.5
34.04	12354.5
34.06	11776.5
34.08	10692.8
34.1	10313.5
34.12	10241.2
34.14	9970.3
34.16	9139.45
34.18	9916.12
34.2	9500.69
34.22	9536.81
34.24	8958.83
34.26	8579.52
34.28	8435.02
34.3	8760.14
34.32	8525.33
34.34	7820.91
34.36	8146.03
34.38	8435.02
34.4	8308.59
34.42	8182.15
34.44	7730.6
34.46	8109.9
34.48	8182.15
34.5	8850.45
34.52	8182.15
34.54	8850.45
34.56	8308.59
34.58	8561.46
34.6	8290.53
34.62	7730.6
34.64	8742.08
34.66	8832.39
34.68	8742.08
34.7	8579.52
34.72	8687.89
34.74	9554.88
34.76	8940.76
34.78	8976.89
34.8	9229.76
34.82	8453.08
34.84	8019.59
34.86	8778.2
34.88	7983.47
34.9	8362.77
34.92	8037.66
34.94	8633.71
34.96	8742.08
34.98	8525.33
35	9139.45
35.02	8742.08
35.04	9265.88
35.06	9139.45
35.08	10114.8
35.1	10981.8
35.12	9970.3
35.14	10927.6
35.16	9229.76
35.18	9229.76
35.2	9157.51
35.22	9049.14
35.24	8236.34
35.26	8326.65
35.28	7730.6
35.3	7911.22
35.32	7730.6
35.34	8055.72
35.36	7423.54
35.38	7875.1
35.4	7224.86
35.42	7477.73
35.44	8109.9
35.46	7766.72
35.48	7441.6
35.5	7929.28
35.52	7586.1
35.54	8073.78
35.56	6990.05
35.58	7857.03
35.6	7423.54
35.62	7242.92
35.64	7965.41
35.66	7802.85
35.68	7622.23
35.7	7369.36
35.72	8435.02
35.74	7351.29
35.76	7911.22
35.78	7766.72
35.8	7315.17
35.82	7640.29
35.84	7044.24
35.86	6881.68
35.88	7459.67
35.9	8182.15
35.92	7820.91
35.94	8435.02
35.96	8651.77
35.98	9085.26
36	9283.94
36.02	9229.76
36.04	9699.37
36.06	10765
36.08	10999.8
36.1	11361.1
36.12	11559.8
36.14	11921
36.16	12173.9
36.18	10620.5
36.2	10548.3
36.22	10313.5
36.24	9861.93
36.26	8868.51
36.28	9609.06
36.3	8778.2
36.32	8019.59
36.34	7784.79
36.36	7640.29
36.38	8019.59
36.4	7513.85
36.42	7802.85
36.44	7983.47
36.46	8182.15
36.48	8435.02
36.5	8687.89
36.52	8380.84
36.54	8633.71
36.56	8633.71
36.58	9049.14
36.6	9356.19
36.62	8182.15
36.64	8073.78
36.66	8742.08
36.68	8778.2
36.7	8579.52
36.72	9211.7
36.74	8633.71
36.76	8958.83
36.78	9771.62
36.8	11451.4
36.82	11632
36.84	11595.9
36.86	12679.6
36.88	12661.6
36.9	12191.9
36.92	11541.7
36.94	11379.2
36.96	11108.2
36.98	10169
37	9699.37
37.02	8904.64
37.04	8705.96
37.06	8236.34
37.08	8994.95
37.1	9338.13
37.12	9789.68
37.14	10494.1
37.16	11252.7
37.18	11848.8
37.2	13384.1
37.22	15551.5
37.24	15587.6
37.26	17610.6
37.28	19669.7
37.3	20735.3
37.32	20988.2
37.34	20681.2
37.36	18874.9
37.38	16472.7
37.4	14756.8
37.42	14088.5
37.44	12408.7
37.46	11740.4
37.48	11252.7
37.5	9464.57
37.52	9121.38
37.54	9085.26
37.56	8705.96
37.58	9157.51
37.6	8398.9
37.62	9338.13
37.64	8994.95
37.66	9157.51
37.68	9211.7
37.7	10169
37.72	10169
37.74	10674.7
37.76	11361.1
37.78	10801.2
37.8	12553.2
37.82	13889.8
37.84	13564.7
37.86	13402.1
37.88	13311.8
37.9	13004.7
37.92	12354.5
37.94	12191.9
37.96	12462.9
37.98	11180.5
38	11523.6
38.02	11054
38.04	10042.6
38.06	10819.2
38.08	9067.2
38.1	9157.51
38.12	9338.13
38.14	10042.6
38.16	8164.09
38.18	8597.58
38.2	9229.76
38.22	9825.81
38.24	10078.7
38.26	10494.1
38.28	11343
38.3	11198.5
38.32	10530.2
38.34	10819.2
38.36	11054
38.38	9988.37
38.4	9807.75
38.42	9410.38
38.44	9067.2
38.46	8380.84
38.48	7441.6
38.5	7604.16
38.52	7549.98
38.54	7784.79
38.56	7730.6
38.58	7477.73
38.6	7098.42
38.62	7983.47
38.64	7586.1
38.66	7459.67
38.68	7206.8
38.7	7206.8
38.72	7875.1
38.74	7802.85
38.76	7766.72
38.78	7658.35
38.8	8525.33
38.82	9103.32
38.84	8886.58
38.86	9031.07
38.88	8868.51
38.9	8922.7
38.92	8272.46
38.94	8507.27
38.96	8543.4
38.98	9446.5
39	9085.26
39.02	9500.69
39.04	9067.2
39.06	9500.69
39.08	11451.4
39.1	11162.4
39.12	11541.7
39.14	12986.7
39.16	13420.2
39.18	14503.9
39.2	15948.9
39.22	16165.6
39.24	15370.9
39.26	15696
39.28	16852
39.3	17610.6
39.32	16725.5
39.34	17737
39.36	16382.4
39.38	15461.2
39.4	14449.7
39.42	12986.7
39.44	12733.8
39.46	11595.9
39.48	11252.7
39.5	11144.3
39.52	9916.12
39.54	9536.81
39.56	8850.45
39.58	8073.78
39.6	8037.66
39.62	7748.66
39.64	7802.85
39.66	7333.23
39.68	7387.42
39.7	7387.42
39.72	7080.36
39.74	7062.3
39.76	6755.24
39.78	7315.17
39.8	6682.99
39.82	7477.73
39.84	7477.73
39.86	7369.36
39.88	7170.67
39.9	7405.48
39.92	7983.47
39.94	8236.34
39.96	8489.21
39.98	7477.73
40	8416.96
40.02	8146.03
40.04	8127.97
40.06	8019.59
40.08	8416.96
40.1	8037.66
40.12	8290.53
40.14	8651.77
40.16	8615.64
40.18	8182.15
40.2	7477.73
40.22	8254.4
40.24	7586.1
40.26	7116.49
40.28	7748.66
40.3	7315.17
40.32	7008.11
40.34	7351.29
40.36	7242.92
40.38	6719.12
40.4	6592.68
40.42	7315.17
40.44	7152.61
40.46	6394
40.48	6881.68
40.5	7405.48
40.52	6375.94
40.54	6701.06
40.56	7549.98
40.58	7134.55
40.6	6141.13
40.62	6791.37
40.64	6935.86
40.66	6592.68
40.68	7008.11
40.7	7116.49
40.72	7513.85
40.74	6827.49
40.76	7495.79
40.78	7784.79
40.8	7604.16
40.82	7387.42
40.84	7640.29
40.86	7513.85
40.88	7586.1
40.9	7459.67
40.92	7315.17
40.94	6809.43
40.96	7206.8
40.98	7242.92
41	6737.18
41.02	6737.18
41.04	7062.3
41.06	6990.05
41.08	6845.55
41.1	6664.93
41.12	6755.24
41.14	6628.81
41.16	6953.93
41.18	6574.62
41.2	7134.55
41.22	6809.43
41.24	6466.25
41.26	6466.25
41.28	6177.25
41.3	6917.8
41.32	6773.31
41.34	6339.81
41.36	6791.37
41.38	7044.24
41.4	7062.3
41.42	6610.75
41.44	7044.24
41.46	6971.99
41.48	7026.18
41.5	7405.48
41.52	8037.66
41.54	8724.02
41.56	8362.77
41.58	8922.7
41.6	9392.32
41.62	9898.06
41.64	11343
41.66	11740.4
41.68	12860.2
41.7	13275.7
41.72	14666.5
41.74	15334.8
41.76	15948.9
41.78	16400.4
41.8	17303.5
41.82	17357.7
41.84	16833.9
41.86	16274
41.88	14178.8
41.9	12806.1
41.92	13311.8
41.94	12426.8
41.96	10403.8
41.98	11487.5
42	10277.4
42.02	9338.13
42.04	9572.94
42.06	8886.58
42.08	8742.08
42.1	8326.65
42.12	8760.14
42.14	8615.64
42.16	7242.92
42.18	7965.41
42.2	7333.23
42.22	7188.73
42.24	7224.86
42.26	7170.67
42.28	6990.05
42.3	7080.36
42.32	7152.61
42.34	7062.3
42.36	6050.82
42.38	6899.74
42.4	6737.18
42.42	6827.49
42.44	7044.24
42.46	6719.12
42.48	6791.37
42.5	7315.17
42.52	6827.49
42.54	7170.67
42.56	6827.49
42.58	6773.31
42.6	6628.81
42.62	6935.86
42.64	7098.42
42.66	6592.68
42.68	6556.56
42.7	7188.73
42.72	7333.23
42.74	7188.73
42.76	6953.93
42.78	7405.48
42.8	6990.05
42.82	7242.92
42.84	7459.67
42.86	7893.16
42.88	8416.96
42.9	8453.08
42.92	8886.58
42.94	9735.5
42.96	9428.44
42.98	9392.32
43	9663.25
43.02	9771.62
43.04	8814.33
43.06	8579.52
43.08	8019.59
43.1	7802.85
43.12	7766.72
43.14	7549.98
43.16	8308.59
43.18	7062.3
43.2	7604.16
43.22	7423.54
43.24	7242.92
43.26	7279.05
43.28	7224.86
43.3	7586.1
43.32	7604.16
43.34	6682.99
43.36	6412.06
43.38	6592.68
43.4	6682.99
43.42	6628.81
43.44	6682.99
43.46	6484.31
43.48	6773.31
43.5	6610.75
43.52	6068.88
43.54	6195.32
43.56	6628.81
43.58	6719.12
43.6	6755.24
43.62	6285.63
43.64	6520.44
43.66	6791.37
43.68	7062.3
43.7	6484.31
43.72	6086.94
43.74	6556.56
43.76	6737.18
43.78	6863.62
43.8	7297.11
43.82	7441.6
43.84	7026.18
43.86	7134.55
43.88	7080.36
43.9	6520.44
43.92	7260.98
43.94	6321.75
43.96	6159.19
43.98	7242.92
44	6971.99
44.02	6990.05
44.04	6863.62
44.06	6610.75
44.08	6520.44
44.1	5743.76
44.12	6285.63
44.14	6394
44.16	6791.37
44.18	6285.63
44.2	6249.5
44.22	6971.99
44.24	6231.44
44.26	6610.75
44.28	6086.94
44.3	7008.11
44.32	6141.13
44.34	6646.87
44.36	7026.18
44.38	6935.86
44.4	7423.54
44.42	7315.17
44.44	7766.72
44.46	8001.53
44.48	8308.59
44.5	8164.09
44.52	8778.2
44.54	7242.92
44.56	7495.79
44.58	7224.86
44.6	7531.92
44.62	7604.16
44.64	7026.18
44.66	6845.55
44.68	6990.05
44.7	6430.12
44.72	6032.76
44.74	6321.75
44.76	6231.44
44.78	6592.68
44.8	6719.12
44.82	6682.99
44.84	6610.75
44.86	6339.81
44.88	6267.56
44.9	7026.18
44.92	6231.44
44.94	7929.28
44.96	7279.05
44.98	7369.36
45	7568.04
45.02	7369.36
45.04	7477.73
45.06	7116.49
45.08	7387.42
45.1	7134.55
45.12	6791.37
45.14	6845.55
45.16	6990.05
45.18	6574.62
45.2	6701.06
45.22	6646.87
45.24	6357.88
45.26	6484.31
45.28	6321.75
45.3	6448.19
45.32	5779.89
45.34	6466.25
45.36	6159.19
45.38	5816.01
45.4	6339.81
45.42	6321.75
45.44	5761.82
45.46	6032.76
45.48	5870.2
45.5	6394
45.52	6592.68
45.54	6375.94
45.56	6213.38
45.58	6430.12
45.6	6068.88
45.62	6484.31
45.64	6357.88
45.66	6520.44
45.68	6394
45.7	6881.68
45.72	6249.5
45.74	6068.88
45.76	6321.75
45.78	6105.01
45.8	6267.56
45.82	5834.07
45.84	5779.89
45.86	5490.89
45.88	5508.95
45.9	4930.97
45.92	6123.07
45.94	5743.76
45.96	5165.77
45.98	6068.88
46	5888.26
46.02	5563.14
46.04	5816.01
46.06	5870.2
46.08	6177.25
46.1	5707.64
46.12	5834.07
46.14	5490.89
46.16	5743.76
46.18	5400.58
46.2	6032.76
46.22	5256.08
46.24	6050.82
46.26	5147.71
46.28	5942.45
46.3	5328.33
46.32	6159.19
46.34	5635.39
46.36	6791.37
46.38	6592.68
46.4	6285.63
46.42	6773.31
46.44	6863.62
46.46	6953.93
46.48	7206.8
46.5	7784.79
46.52	7568.04
46.54	7802.85
46.56	8200.21
46.58	7730.6
46.6	7206.8
46.62	7351.29
46.64	6646.87
46.66	6502.37
46.68	6827.49
46.7	6086.94
46.72	6195.32
46.74	6267.56
46.76	5219.96
46.78	5888.26
46.8	5418.64
46.82	6123.07
46.84	5870.2
46.86	5581.2
46.88	5924.38
46.9	5725.7
46.92	5310.27
46.94	5779.89
46.96	5996.63
46.98	5743.76
47	6105.01
47.02	6231.44
47.04	6032.76
47.06	6032.76
47.08	6303.69
47.1	6430.12
47.12	6177.25
47.14	6971.99
47.16	7044.24
47.18	6971.99
47.2	7658.35
47.22	7586.1
47.24	8146.03
47.26	8091.84
47.28	7893.16
47.3	7586.1
47.32	8001.53
47.34	7802.85
47.36	8218.28
47.38	8380.84
47.4	7838.97
47.42	8380.84
47.44	7965.41
47.46	8435.02
47.48	8398.9
47.5	7748.66
47.52	7676.41
47.54	8471.15
47.56	9464.57
47.58	8308.59
47.6	8200.21
47.62	8073.78
47.64	7911.22
47.66	7820.91
47.68	8109.9
47.7	8290.53
47.72	7929.28
47.74	9139.45
47.76	8687.89
47.78	8651.77
47.8	9013.01
47.82	9681.31
47.84	9861.93
47.86	10331.5
47.88	9446.5
47.9	9771.62
47.92	10458
47.94	9771.62
47.96	9211.7
47.98	10765
48	9085.26
48.02	9193.63
48.04	8362.77
48.06	8164.09
48.08	7495.79
48.1	7531.92
48.12	7712.54
48.14	7423.54
48.16	7044.24
48.18	7604.16
48.2	6592.68
48.22	6086.94
48.24	5816.01
48.26	5743.76
48.28	6032.76
48.3	6285.63
48.32	5834.07
48.34	6032.76
48.36	6159.19
48.38	5960.51
48.4	6032.76
48.42	5888.26
48.44	5942.45
48.46	5924.38
48.48	5707.64
48.5	5888.26
48.52	6141.13
48.54	6556.56
48.56	6484.31
48.58	6538.5
48.6	6014.69
48.62	7134.55
48.64	7694.47
48.66	7062.3
48.68	7640.29
48.7	8290.53
48.72	8525.33
48.74	8398.9
48.76	8922.7
48.78	8615.64
48.8	7748.66
48.82	7206.8
48.84	6809.43
48.86	7206.8
48.88	6574.62
48.9	6971.99
48.92	6357.88
48.94	6339.81
48.96	5924.38
48.98	5653.45
49	5960.51
49.02	5834.07
49.04	5472.83
49.06	5328.33
49.08	5671.51
49.1	5111.59
49.12	5111.59
49.14	4967.09
49.16	5165.77
49.18	5599.27
49.2	6592.68
49.22	6646.87
49.24	7062.3
49.26	7333.23
49.28	7116.49
49.3	7802.85
49.32	7297.11
49.34	6610.75
49.36	6682.99
49.38	6953.93
49.4	7387.42
49.42	6737.18
49.44	7766.72
49.46	7838.97
49.48	7875.1
49.5	8669.83
49.52	8471.15
49.54	8164.09
49.56	7297.11
49.58	7875.1
49.6	7206.8
49.62	7188.73
49.64	7423.54
49.66	7152.61
49.68	6755.24
49.7	7279.05
49.72	6592.68
49.74	7260.98
49.76	6448.19
49.78	7586.1
49.8	7405.48
49.82	6755.24
49.84	7405.48
49.86	7586.1
49.88	7947.34
49.9	7441.6
49.92	7279.05
49.94	7531.92
49.96	7495.79
49.98	6971.99
50	7622.23
50.02	7676.41
50.04	6682.99
50.06	7279.05
50.08	6899.74
50.1	6755.24
50.12	6682.99
50.14	6520.44
50.16	6448.19
50.18	5816.01
50.2	6394
50.22	6321.75
50.24	5834.07
50.26	5472.83
50.28	5870.2
50.3	6357.88
50.32	5978.57
50.34	5797.95
50.36	5599.27
50.38	5978.57
50.4	5834.07
50.42	6249.5
50.44	5400.58
50.46	6050.82
50.48	5888.26
50.5	6014.69
50.52	6285.63
50.54	6123.07
50.56	6430.12
50.58	6321.75
50.6	6032.76
50.62	5183.84
50.64	5653.45
50.66	5797.95
50.68	6068.88
50.7	5490.89
50.72	5599.27
50.74	5978.57
50.76	6050.82
50.78	6068.88
50.8	6321.75
50.82	6123.07
50.84	5960.51
50.86	6321.75
50.88	6321.75
50.9	7242.92
50.92	7983.47
50.94	7188.73
50.96	7369.36
50.98	8073.78
51	8507.27
51.02	8994.95
51.04	10494.1
51.06	10385.7
51.08	10765
51.1	10530.2
51.12	10006.4
51.14	10060.6
51.16	9609.06
51.18	8543.4
51.2	8362.77
51.22	7586.1
51.24	7658.35
51.26	7802.85
51.28	6935.86
51.3	6520.44
51.32	6177.25
51.34	5888.26
51.36	5545.08
51.38	5906.32
51.4	5635.39
51.42	5147.71
51.44	5454.77
51.46	5563.14
51.48	5039.34
51.5	5617.33
51.52	5219.96
51.54	5761.82
51.56	5364.46
51.58	5382.52
51.6	5472.83
51.62	6014.69
51.64	5545.08
51.66	5725.7
51.68	5581.2
51.7	6068.88
51.72	5364.46
51.74	5779.89
51.76	5870.2
51.78	5617.33
51.8	6123.07
51.82	6231.44
51.84	6719.12
51.86	6159.19
51.88	6267.56
51.9	6014.69
51.92	7008.11
51.94	6701.06
51.96	6917.8
51.98	6628.81
52	7080.36
52.02	5996.63
52.04	6195.32
52.06	7279.05
52.08	6249.5
52.1	6267.56
52.12	6375.94
52.14	5653.45
52.16	6574.62
52.18	6863.62
52.2	6159.19
52.22	6123.07
52.24	6014.69
52.26	5924.38
52.28	5617.33
52.3	5816.01
52.32	5978.57
52.34	5364.46
52.36	5490.89
52.38	4876.78
52.4	4804.53
52.42	5093.53
52.44	4840.66
52.46	4696.16
52.48	4641.97
52.5	4443.29
52.52	4280.73
52.54	4497.47
52.56	4912.9
52.58	5274.15
52.6	4678.1
52.62	4876.78
52.64	4967.09
52.66	4172.36
52.68	4551.66
52.7	4912.9
52.72	4894.84
52.74	4515.54
52.76	4461.35
52.78	5219.96
52.8	4912.9
52.82	5039.34
52.84	4912.9
52.86	5238.02
52.88	5400.58
52.9	5527.02
52.92	5292.21
52.94	5888.26
52.96	6249.5
52.98	5978.57
53	5888.26
53.02	5852.14
53.04	5978.57
53.06	5274.15
53.08	5671.51
53.1	5852.14
53.12	5563.14
53.14	5346.4
53.16	5707.64
53.18	5021.28
53.2	5003.21
53.22	4660.03
53.24	4949.03
53.26	4262.67
53.28	4443.29
53.3	5039.34
53.32	4768.41
53.34	4786.47
53.36	4894.84
53.38	4623.91
53.4	5021.28
53.42	4479.41
53.44	4623.91
53.46	5129.65
53.48	4985.15
53.5	4949.03
53.52	4822.59
53.54	5256.08
53.56	5599.27
53.58	5382.52
53.6	6086.94
53.62	5671.51
53.64	5978.57
53.66	6105.01
53.68	5382.52
53.7	5635.39
53.72	5960.51
53.74	5725.7
53.76	5653.45
53.78	5761.82
53.8	5581.2
53.82	5310.27
53.84	4930.97
53.86	4623.91
53.88	4082.05
53.9	5075.46
53.92	4912.9
53.94	4515.54
53.96	4985.15
53.98	4298.79
54	3774.99
54.02	4389.1
54.04	4551.66
54.06	4262.67
54.08	4244.6
54.1	3738.86
54.12	4190.42
54.14	4027.86
54.16	4461.35
54.18	4262.67
54.2	4389.1
54.22	4479.41
54.24	4389.1
54.26	4298.79
54.28	3756.93
54.3	4641.97
54.32	4660.03
54.34	4732.28
54.36	4316.85
54.38	4389.1
54.4	4136.23
54.42	4208.48
54.44	4226.54
54.46	4949.03
54.48	4840.66
54.5	4569.72
54.52	4605.85
54.54	4371.04
54.56	4497.47
54.58	5274.15
54.6	5093.53
54.62	5472.83
54.64	6086.94
54.66	6502.37
54.68	6195.32
54.7	7405.48
54.72	7838.97
54.74	7586.1
54.76	8398.9
54.78	8651.77
54.8	8200.21
54.82	7712.54
54.84	7116.49
54.86	6556.56
54.88	6285.63
54.9	6394
54.92	6195.32
54.94	5093.53
54.96	5418.64
54.98	5075.46
55	4786.47
55.02	4551.66
55.04	4172.36
55.06	4678.1
55.08	4009.8
55.1	4190.42
55.12	3991.73
55.14	4208.48
55.16	4515.54
55.18	4009.8
55.2	4262.67
55.22	4443.29
55.24	4154.29
55.26	3991.73
55.28	4298.79
55.3	4118.17
55.32	4623.91
55.34	4118.17
55.36	3955.61
55.38	4154.29
55.4	4118.17
55.42	3504.06
55.44	3395.68
55.46	3467.93
55.48	3522.12
55.5	3395.68
55.52	3738.86
55.54	3413.75
55.56	3449.87
55.58	3395.68
55.6	3666.62
55.62	3251.19
55.64	3233.12
55.66	3594.37
55.68	3377.62
55.7	3666.62
55.72	3576.31
55.74	3973.67
55.76	3666.62
55.78	3215.06
55.8	3251.19
55.82	3865.3
55.84	3522.12
55.86	3540.18
55.88	3233.12
55.9	3449.87
55.92	3774.99
55.94	3594.37
55.96	3341.5
55.98	3341.5
56	3847.24
56.02	3522.12
56.04	3467.93
56.06	3811.11
56.08	3756.93
56.1	3937.55
56.12	4334.92
56.14	4208.48
56.16	4425.23
56.18	4371.04
56.2	4118.17
56.22	4678.1
56.24	4587.79
56.26	4262.67
56.28	4190.42
56.3	4641.97
56.32	3937.55
56.34	4244.6
56.36	4461.35
56.38	3720.8
56.4	4082.05
56.42	3522.12
56.44	3684.68
56.46	3684.68
56.48	3630.49
56.5	3973.67
56.52	3522.12
56.54	3413.75
56.56	3630.49
56.58	3485.99
56.6	3504.06
56.62	3576.31
56.64	3251.19
56.66	3251.19
56.68	3269.25
56.7	3594.37
56.72	3413.75
56.74	3648.55
56.76	4100.11
56.78	4063.98
56.8	4027.86
56.82	4407.16
56.84	4479.41
56.86	4389.1
56.88	4172.36
56.9	4605.85
56.92	4551.66
56.94	4696.16
56.96	4497.47
56.98	4678.1
57	4244.6
57.02	4009.8
57.04	4118.17
57.06	4226.54
57.08	3901.42
57.1	4154.29
57.12	4045.92
57.14	3774.99
57.16	3612.43
57.18	3594.37
57.2	3702.74
57.22	3829.18
57.24	3287.31
57.26	3991.73
57.28	3540.18
57.3	4172.36
57.32	4063.98
57.34	3738.86
57.36	3793.05
57.38	3251.19
57.4	3865.3
57.42	3377.62
57.44	3395.68
57.46	3684.68
57.48	3829.18
57.5	3666.62
57.52	3377.62
57.54	3449.87
57.56	3829.18
57.58	3269.25
57.6	3305.37
57.62	3233.12
57.64	3088.63
57.66	3431.81
57.68	3576.31
57.7	3088.63
57.72	3070.56
57.74	3540.18
57.76	3774.99
57.78	3720.8
57.8	3413.75
57.82	3269.25
57.84	3305.37
57.86	3467.93
57.88	3522.12
57.9	3558.24
57.92	3793.05
57.94	3684.68
57.96	3756.93
57.98	3811.11
58	3431.81
58.02	4100.11
58.04	4389.1
58.06	3522.12
58.08	3811.11
58.1	3449.87
58.12	3937.55
58.14	3612.43
58.16	3919.49
58.18	4027.86
58.2	3901.42
58.22	3269.25
58.24	3829.18
58.26	3594.37
58.28	3449.87
58.3	3449.87
58.32	3142.81
58.34	3233.12
58.36	3215.06
58.38	3305.37
58.4	3178.94
58.42	3811.11
58.44	3323.44
58.46	3377.62
58.48	3269.25
58.5	3431.81
58.52	3811.11
58.54	3052.5
58.56	3522.12
58.58	3576.31
58.6	3449.87
58.62	3684.68
58.64	3883.36
58.66	3811.11
58.68	3738.86
58.7	3630.49
58.72	3630.49
58.74	4100.11
58.76	3504.06
58.78	3142.81
58.8	4208.48
58.82	4063.98
58.84	3648.55
58.86	3576.31
58.88	3883.36
58.9	3377.62
58.92	3594.37
58.94	3522.12
58.96	3052.5
58.98	3088.63
59	3630.49
59.02	3594.37
59.04	3630.49
59.06	3612.43
59.08	3106.69
59.1	3178.94
59.12	3341.5
59.14	3431.81
59.16	3738.86
59.18	3215.06
59.2	3052.5
59.22	3142.81
59.24	3522.12
59.26	3522.12
59.28	3901.42
59.3	3630.49
59.32	3395.68
59.34	3251.19
59.36	3540.18
59.38	3630.49
59.4	3576.31
59.42	3630.49
59.44	3919.49
59.46	3720.8
59.48	3919.49
59.5	3449.87
59.52	3377.62
59.54	3811.11
59.56	3991.73
59.58	3738.86
59.6	4100.11
59.62	3666.62
59.64	3485.99
59.66	3395.68
59.68	3576.31
59.7	3359.56
59.72	3522.12
59.74	3901.42
59.76	4371.04
59.78	4027.86
59.8	4912.9
59.82	4533.6
59.84	4316.85
59.86	4985.15
59.88	4443.29
59.9	4533.6
59.92	4479.41
59.94	4551.66
59.96	4100.11
59.98	3756.93
60	4190.42
