Sample	 
Comments	 
Filename	C:\Data\西出研\梅木\20211102オペ\LiFTFSI20wt_01_0001_0029-1_C_2θ.raw
Goniometer	SmartLab(In-plane)
Attachment	標準Zステージ
Monochromater	None
X	0
Y	0
Z	0.01716
ScanningMode	2Theta
ScanningType	Continuos Scanning
X-Ray	40kV/30mA
入射スリット	0.300mm
受光スリット1	20.000mm
受光スリット2	20.000mm
None	
Start	5
Stop	60
Step	0.02
Speed	21.6746
Theta	0
5	6917.8
5.02	6881.68
5.04	6267.56
5.06	6682.99
5.08	6791.37
5.1	6177.25
5.12	6845.55
5.14	6845.55
5.16	6556.56
5.18	6484.31
5.2	5906.32
5.22	6971.99
5.24	6791.37
5.26	6755.24
5.28	6484.31
5.3	6484.31
5.32	6664.93
5.34	6249.5
5.36	6357.88
5.38	6105.01
5.4	7008.11
5.42	6971.99
5.44	6737.18
5.46	6556.56
5.48	6592.68
5.5	6177.25
5.52	6556.56
5.54	6664.93
5.56	7224.86
5.58	6448.19
5.6	6755.24
5.62	6231.44
5.64	5942.45
5.66	5743.76
5.68	6863.62
5.7	6610.75
5.72	6014.69
5.74	6646.87
5.76	6430.12
5.78	6863.62
5.8	6014.69
5.82	6520.44
5.84	6466.25
5.86	6177.25
5.88	5779.89
5.9	6538.5
5.92	6899.74
5.94	5960.51
5.96	6375.94
5.98	6123.07
6	6484.31
6.02	6375.94
6.04	6664.93
6.06	5942.45
6.08	6448.19
6.1	6303.69
6.12	6303.69
6.14	6068.88
6.16	6213.38
6.18	6195.32
6.2	6646.87
6.22	6086.94
6.24	6538.5
6.26	6249.5
6.28	6466.25
6.3	6231.44
6.32	6105.01
6.34	6701.06
6.36	6032.76
6.38	5653.45
6.4	6574.62
6.42	5364.46
6.44	6086.94
6.46	5761.82
6.48	6267.56
6.5	6267.56
6.52	5960.51
6.54	6141.13
6.56	5635.39
6.58	5996.63
6.6	5779.89
6.62	5906.32
6.64	5581.2
6.66	5906.32
6.68	5852.14
6.7	5942.45
6.72	6086.94
6.74	5671.51
6.76	5978.57
6.78	5978.57
6.8	5653.45
6.82	5816.01
6.84	6231.44
6.86	6610.75
6.88	5942.45
6.9	5183.84
6.92	6213.38
6.94	5472.83
6.96	5924.38
6.98	5906.32
7	5816.01
7.02	5834.07
7.04	5635.39
7.06	5545.08
7.08	5545.08
7.1	5834.07
7.12	5689.58
7.14	5183.84
7.16	5563.14
7.18	5996.63
7.2	5816.01
7.22	5527.02
7.24	5256.08
7.26	5942.45
7.28	5436.71
7.3	5527.02
7.32	6014.69
7.34	5707.64
7.36	5292.21
7.38	5418.64
7.4	6249.5
7.42	5888.26
7.44	5508.95
7.46	5581.2
7.48	5508.95
7.5	5364.46
7.52	5183.84
7.54	5328.33
7.56	5725.7
7.58	5527.02
7.6	5852.14
7.62	5689.58
7.64	5527.02
7.66	6177.25
7.68	5852.14
7.7	5689.58
7.72	5707.64
7.74	5816.01
7.76	6249.5
7.78	5978.57
7.8	5310.27
7.82	5617.33
7.84	5346.4
7.86	5346.4
7.88	5870.2
7.9	5599.27
7.92	5418.64
7.94	5906.32
7.96	5635.39
7.98	5508.95
8	5852.14
8.02	5942.45
8.04	5165.77
8.06	5527.02
8.08	5057.4
8.1	5653.45
8.12	5400.58
8.14	5707.64
8.16	5671.51
8.18	5165.77
8.2	6105.01
8.22	5797.95
8.24	5635.39
8.26	5996.63
8.28	5761.82
8.3	5581.2
8.32	5581.2
8.34	5635.39
8.36	5472.83
8.38	5599.27
8.4	5472.83
8.42	5816.01
8.44	5834.07
8.46	5256.08
8.48	5238.02
8.5	5436.71
8.52	5960.51
8.54	6827.49
8.56	5797.95
8.58	5075.46
8.6	5942.45
8.62	5472.83
8.64	5978.57
8.66	5671.51
8.68	6249.5
8.7	5165.77
8.72	5508.95
8.74	6086.94
8.76	5852.14
8.78	5219.96
8.8	5689.58
8.82	5490.89
8.84	5346.4
8.86	5761.82
8.88	5454.77
8.9	5238.02
8.92	5834.07
8.94	5490.89
8.96	5527.02
8.98	5165.77
9	5382.52
9.02	5454.77
9.04	5545.08
9.06	5436.71
9.08	5310.27
9.1	5183.84
9.12	5382.52
9.14	5490.89
9.16	5129.65
9.18	5436.71
9.2	5418.64
9.22	5418.64
9.24	5400.58
9.26	4876.78
9.28	5490.89
9.3	5472.83
9.32	5364.46
9.34	5834.07
9.36	5183.84
9.38	5653.45
9.4	5039.34
9.42	4876.78
9.44	5003.21
9.46	4985.15
9.48	4912.9
9.5	5942.45
9.52	5183.84
9.54	5147.71
9.56	5508.95
9.58	5039.34
9.6	4858.72
9.62	5075.46
9.64	5147.71
9.66	5635.39
9.68	5165.77
9.7	5761.82
9.72	5508.95
9.74	5906.32
9.76	5779.89
9.78	5238.02
9.8	5165.77
9.82	5039.34
9.84	5400.58
9.86	5382.52
9.88	5382.52
9.9	5129.65
9.92	5075.46
9.94	5346.4
9.96	5653.45
9.98	4967.09
10	5454.77
10.02	5454.77
10.04	4985.15
10.06	5490.89
10.08	5075.46
10.1	5527.02
10.12	5292.21
10.14	4786.47
10.16	5779.89
10.18	5238.02
10.2	5382.52
10.22	5364.46
10.24	5129.65
10.26	4768.41
10.28	4551.66
10.3	5563.14
10.32	5454.77
10.34	4985.15
10.36	4985.15
10.38	5147.71
10.4	5635.39
10.42	5725.7
10.44	5147.71
10.46	5310.27
10.48	4930.97
10.5	5490.89
10.52	5563.14
10.54	5816.01
10.56	5183.84
10.58	4967.09
10.6	5075.46
10.62	5183.84
10.64	5563.14
10.66	5364.46
10.68	4949.03
10.7	5274.15
10.72	5653.45
10.74	5328.33
10.76	5165.77
10.78	5400.58
10.8	5400.58
10.82	4605.85
10.84	5563.14
10.86	5310.27
10.88	5147.71
10.9	5039.34
10.92	5165.77
10.94	5183.84
10.96	5310.27
10.98	5021.28
11	5039.34
11.02	5274.15
11.04	5527.02
11.06	5201.9
11.08	5310.27
11.1	4678.1
11.12	5761.82
11.14	4786.47
11.16	4930.97
11.18	5238.02
11.2	4930.97
11.22	5454.77
11.24	5599.27
11.26	5021.28
11.28	5581.2
11.3	5617.33
11.32	5346.4
11.34	4605.85
11.36	5219.96
11.38	5183.84
11.4	5761.82
11.42	5852.14
11.44	5310.27
11.46	5256.08
11.48	5436.71
11.5	5039.34
11.52	5545.08
11.54	5292.21
11.56	4894.84
11.58	5129.65
11.6	5382.52
11.62	5039.34
11.64	5147.71
11.66	5075.46
11.68	5256.08
11.7	5328.33
11.72	5219.96
11.74	4660.03
11.76	4985.15
11.78	5111.59
11.8	5256.08
11.82	5328.33
11.84	5292.21
11.86	5201.9
11.88	5436.71
11.9	5364.46
11.92	4876.78
11.94	4696.16
11.96	4605.85
11.98	4840.66
12	4623.91
12.02	4768.41
12.04	4912.9
12.06	5165.77
12.08	4678.1
12.1	5165.77
12.12	5256.08
12.14	5418.64
12.16	4641.97
12.18	5310.27
12.2	5129.65
12.22	4967.09
12.24	4533.6
12.26	5021.28
12.28	4985.15
12.3	5436.71
12.32	4804.53
12.34	5183.84
12.36	5599.27
12.38	5183.84
12.4	4569.72
12.42	5129.65
12.44	5256.08
12.46	5201.9
12.48	5960.51
12.5	5274.15
12.52	5508.95
12.54	5328.33
12.56	5219.96
12.58	5201.9
12.6	5147.71
12.62	5147.71
12.64	5599.27
12.66	5382.52
12.68	4985.15
12.7	5165.77
12.72	4641.97
12.74	5328.33
12.76	4786.47
12.78	5617.33
12.8	5328.33
12.82	5183.84
12.84	5292.21
12.86	5111.59
12.88	4930.97
12.9	5274.15
12.92	5960.51
12.94	5942.45
12.96	5581.2
12.98	4894.84
13	5400.58
13.02	5508.95
13.04	5274.15
13.06	5057.4
13.08	5256.08
13.1	5075.46
13.12	5454.77
13.14	5219.96
13.16	5219.96
13.18	4660.03
13.2	4714.22
13.22	5599.27
13.24	5310.27
13.26	5183.84
13.28	5238.02
13.3	5093.53
13.32	5581.2
13.34	5165.77
13.36	4551.66
13.38	4967.09
13.4	4912.9
13.42	5093.53
13.44	5003.21
13.46	4425.23
13.48	5129.65
13.5	4714.22
13.52	4623.91
13.54	4569.72
13.56	5328.33
13.58	5003.21
13.6	4551.66
13.62	5436.71
13.64	5039.34
13.66	5147.71
13.68	5328.33
13.7	5238.02
13.72	5310.27
13.74	5346.4
13.76	5400.58
13.78	5129.65
13.8	5238.02
13.82	4930.97
13.84	5201.9
13.86	5310.27
13.88	5093.53
13.9	5003.21
13.92	5219.96
13.94	5129.65
13.96	5165.77
13.98	5364.46
14	5219.96
14.02	5238.02
14.04	5165.77
14.06	4912.9
14.08	5165.77
14.1	4858.72
14.12	4479.41
14.14	4822.59
14.16	4985.15
14.18	5364.46
14.2	5400.58
14.22	4804.53
14.24	5129.65
14.26	4967.09
14.28	4732.28
14.3	5111.59
14.32	4696.16
14.34	5129.65
14.36	4443.29
14.38	5093.53
14.4	5075.46
14.42	4912.9
14.44	5147.71
14.46	4912.9
14.48	4696.16
14.5	4786.47
14.52	4696.16
14.54	4949.03
14.56	5039.34
14.58	4930.97
14.6	4804.53
14.62	5093.53
14.64	4732.28
14.66	5256.08
14.68	4786.47
14.7	4533.6
14.72	5039.34
14.74	4912.9
14.76	5075.46
14.78	5328.33
14.8	5274.15
14.82	4858.72
14.84	5075.46
14.86	4949.03
14.88	4967.09
14.9	5075.46
14.92	4967.09
14.94	4605.85
14.96	4840.66
14.98	5021.28
15	4750.34
15.02	4750.34
15.04	5274.15
15.06	5165.77
15.08	4768.41
15.1	4985.15
15.12	4587.79
15.14	4930.97
15.16	4696.16
15.18	4551.66
15.2	4605.85
15.22	5238.02
15.24	4876.78
15.26	4967.09
15.28	4678.1
15.3	4786.47
15.32	4840.66
15.34	4930.97
15.36	5400.58
15.38	4967.09
15.4	4967.09
15.42	4768.41
15.44	5003.21
15.46	4641.97
15.48	4876.78
15.5	4822.59
15.52	4985.15
15.54	4569.72
15.56	4985.15
15.58	4912.9
15.6	4479.41
15.62	5093.53
15.64	4912.9
15.66	5292.21
15.68	4930.97
15.7	4569.72
15.72	5093.53
15.74	5328.33
15.76	4443.29
15.78	4858.72
15.8	4678.1
15.82	4949.03
15.84	5238.02
15.86	4515.54
15.88	5183.84
15.9	4894.84
15.92	4407.16
15.94	5527.02
15.96	5057.4
15.98	4515.54
16	4894.84
16.02	4967.09
16.04	4858.72
16.06	4244.6
16.08	4768.41
16.1	4660.03
16.12	4316.85
16.14	4804.53
16.16	4985.15
16.18	4316.85
16.2	4641.97
16.22	4930.97
16.24	4623.91
16.26	4389.1
16.28	4985.15
16.3	4623.91
16.32	4876.78
16.34	3847.24
16.36	5057.4
16.38	4949.03
16.4	4660.03
16.42	4786.47
16.44	4786.47
16.46	4696.16
16.48	4515.54
16.5	4822.59
16.52	4551.66
16.54	4352.98
16.56	4587.79
16.58	4569.72
16.6	4623.91
16.62	4154.29
16.64	4551.66
16.66	4822.59
16.68	4641.97
16.7	4551.66
16.72	4714.22
16.74	4750.34
16.76	4371.04
16.78	5219.96
16.8	4154.29
16.82	4479.41
16.84	4660.03
16.86	5219.96
16.88	4732.28
16.9	4641.97
16.92	4660.03
16.94	4407.16
16.96	4732.28
16.98	4696.16
17	4876.78
17.02	4678.1
17.04	4840.66
17.06	4912.9
17.08	5292.21
17.1	4515.54
17.12	4876.78
17.14	5581.2
17.16	4678.1
17.18	4660.03
17.2	5219.96
17.22	4894.84
17.24	5003.21
17.26	5238.02
17.28	5183.84
17.3	4949.03
17.32	5508.95
17.34	5147.71
17.36	5039.34
17.38	5147.71
17.4	5093.53
17.42	4587.79
17.44	4623.91
17.46	4876.78
17.48	4569.72
17.5	4533.6
17.52	5057.4
17.54	4551.66
17.56	4714.22
17.58	5021.28
17.6	4732.28
17.62	4876.78
17.64	4605.85
17.66	4497.47
17.68	4678.1
17.7	4352.98
17.72	4407.16
17.74	4641.97
17.76	4226.54
17.78	4732.28
17.8	4822.59
17.82	4678.1
17.84	4641.97
17.86	4334.92
17.88	4660.03
17.9	4352.98
17.92	4696.16
17.94	4461.35
17.96	4750.34
17.98	4551.66
18	4172.36
18.02	5201.9
18.04	4696.16
18.06	4696.16
18.08	5075.46
18.1	4804.53
18.12	4786.47
18.14	5382.52
18.16	4840.66
18.18	5201.9
18.2	5075.46
18.22	4641.97
18.24	5906.32
18.26	6068.88
18.28	4949.03
18.3	5111.59
18.32	5508.95
18.34	5382.52
18.36	5292.21
18.38	5111.59
18.4	5129.65
18.42	4822.59
18.44	5039.34
18.46	5021.28
18.48	4605.85
18.5	4461.35
18.52	5039.34
18.54	5472.83
18.56	5057.4
18.58	5111.59
18.6	5003.21
18.62	5129.65
18.64	5490.89
18.66	5129.65
18.68	4605.85
18.7	5093.53
18.72	5111.59
18.74	4714.22
18.76	5057.4
18.78	4930.97
18.8	5219.96
18.82	4678.1
18.84	6068.88
18.86	5310.27
18.88	4732.28
18.9	4858.72
18.92	4930.97
18.94	5418.64
18.96	5129.65
18.98	5725.7
19	5418.64
19.02	5183.84
19.04	5201.9
19.06	5906.32
19.08	5906.32
19.1	5635.39
19.12	5436.71
19.14	5707.64
19.16	5508.95
19.18	5797.95
19.2	5761.82
19.22	5436.71
19.24	5418.64
19.26	5111.59
19.28	5003.21
19.3	4949.03
19.32	5707.64
19.34	4967.09
19.36	5075.46
19.38	5635.39
19.4	5346.4
19.42	5147.71
19.44	5057.4
19.46	4425.23
19.48	4352.98
19.5	5129.65
19.52	4533.6
19.54	4912.9
19.56	4822.59
19.58	4118.17
19.6	4551.66
19.62	5219.96
19.64	4822.59
19.66	4840.66
19.68	4623.91
19.7	4352.98
19.72	4569.72
19.74	4461.35
19.76	4750.34
19.78	4280.73
19.8	4371.04
19.82	4334.92
19.84	4605.85
19.86	4154.29
19.88	4750.34
19.9	4479.41
19.92	4623.91
19.94	4732.28
19.96	4461.35
19.98	3485.99
20	4551.66
20.02	4425.23
20.04	4280.73
20.06	4154.29
20.08	4461.35
20.1	4154.29
20.12	4082.05
20.14	4334.92
20.16	4262.67
20.18	4316.85
20.2	4009.8
20.22	4389.1
20.24	4082.05
20.26	4045.92
20.28	3955.61
20.3	4497.47
20.32	4768.41
20.34	4515.54
20.36	4515.54
20.38	4605.85
20.4	3774.99
20.42	4443.29
20.44	4027.86
20.46	4118.17
20.48	4569.72
20.5	4082.05
20.52	4298.79
20.54	4515.54
20.56	3937.55
20.58	3774.99
20.6	4389.1
20.62	4226.54
20.64	4389.1
20.66	3594.37
20.68	4190.42
20.7	4063.98
20.72	4786.47
20.74	4389.1
20.76	4154.29
20.78	4334.92
20.8	4280.73
20.82	4172.36
20.84	4732.28
20.86	4371.04
20.88	4045.92
20.9	3702.74
20.92	4172.36
20.94	4027.86
20.96	4389.1
20.98	3991.73
21	4063.98
21.02	4208.48
21.04	3955.61
21.06	4497.47
21.08	3973.67
21.1	4316.85
21.12	4407.16
21.14	4118.17
21.16	4515.54
21.18	4678.1
21.2	4100.11
21.22	4479.41
21.24	3973.67
21.26	3865.3
21.28	4244.6
21.3	3847.24
21.32	3883.36
21.34	3756.93
21.36	4334.92
21.38	4063.98
21.4	4190.42
21.42	4136.23
21.44	4334.92
21.46	4551.66
21.48	4443.29
21.5	4100.11
21.52	4208.48
21.54	4371.04
21.56	4334.92
21.58	3702.74
21.6	4623.91
21.62	4316.85
21.64	3901.42
21.66	4316.85
21.68	3937.55
21.7	4244.6
21.72	3865.3
21.74	4226.54
21.76	3901.42
21.78	3955.61
21.8	4280.73
21.82	4027.86
21.84	4190.42
21.86	4136.23
21.88	3720.8
21.9	3485.99
21.92	4009.8
21.94	4298.79
21.96	4262.67
21.98	4082.05
22	4407.16
22.02	4244.6
22.04	3865.3
22.06	3793.05
22.08	4208.48
22.1	3811.11
22.12	3467.93
22.14	3756.93
22.16	4045.92
22.18	4118.17
22.2	3919.49
22.22	4208.48
22.24	3901.42
22.26	4316.85
22.28	3684.68
22.3	3793.05
22.32	3702.74
22.34	4407.16
22.36	4425.23
22.38	4136.23
22.4	3883.36
22.42	4009.8
22.44	3522.12
22.46	3973.67
22.48	3955.61
22.5	4063.98
22.52	4063.98
22.54	4045.92
22.56	4316.85
22.58	3431.81
22.6	3720.8
22.62	3811.11
22.64	3720.8
22.66	3901.42
22.68	4045.92
22.7	3630.49
22.72	4118.17
22.74	4154.29
22.76	3377.62
22.78	3540.18
22.8	3485.99
22.82	4352.98
22.84	3576.31
22.86	3919.49
22.88	3720.8
22.9	3648.55
22.92	3901.42
22.94	3847.24
22.96	3793.05
22.98	3630.49
23	3973.67
23.02	4063.98
23.04	4352.98
23.06	4190.42
23.08	3648.55
23.1	3648.55
23.12	3883.36
23.14	3359.56
23.16	3937.55
23.18	4045.92
23.2	4190.42
23.22	4352.98
23.24	3720.8
23.26	3973.67
23.28	3648.55
23.3	3666.62
23.32	3612.43
23.34	3287.31
23.36	4172.36
23.38	3558.24
23.4	3684.68
23.42	3485.99
23.44	3359.56
23.46	3630.49
23.48	3738.86
23.5	3648.55
23.52	3883.36
23.54	3702.74
23.56	3612.43
23.58	4009.8
23.6	3973.67
23.62	3522.12
23.64	3648.55
23.66	4063.98
23.68	3594.37
23.7	3359.56
23.72	4082.05
23.74	3630.49
23.76	3738.86
23.78	3594.37
23.8	3738.86
23.82	3847.24
23.84	3991.73
23.86	3919.49
23.88	3793.05
23.9	4208.48
23.92	3937.55
23.94	3901.42
23.96	4407.16
23.98	3558.24
24	3774.99
24.02	4136.23
24.04	3865.3
24.06	3865.3
24.08	4082.05
24.1	3738.86
24.12	3774.99
24.14	4389.1
24.16	3829.18
24.18	3522.12
24.2	3955.61
24.22	3594.37
24.24	3576.31
24.26	3359.56
24.28	3540.18
24.3	3377.62
24.32	3413.75
24.34	3160.88
24.36	3359.56
24.38	3269.25
24.4	3756.93
24.42	3449.87
24.44	3467.93
24.46	3793.05
24.48	3684.68
24.5	3504.06
24.52	3215.06
24.54	3684.68
24.56	3341.5
24.58	3377.62
24.6	3016.38
24.62	3178.94
24.64	3648.55
24.66	3756.93
24.68	3323.44
24.7	3377.62
24.72	3287.31
24.74	3594.37
24.76	3160.88
24.78	3666.62
24.8	3630.49
24.82	3395.68
24.84	3160.88
24.86	3160.88
24.88	3016.38
24.9	2980.25
24.92	3485.99
24.94	3197
24.96	3540.18
24.98	3197
25	2817.69
25.02	3377.62
25.04	3178.94
25.06	3016.38
25.08	2926.07
25.1	3052.5
25.12	3431.81
25.14	2998.32
25.16	3070.56
25.18	3124.75
25.2	2980.25
25.22	2998.32
25.24	3142.81
25.26	3413.75
25.28	2835.76
25.3	2835.76
25.32	3251.19
25.34	3395.68
25.36	3341.5
25.38	2962.19
25.4	3359.56
25.42	3142.81
25.44	3160.88
25.46	3251.19
25.48	3305.37
25.5	3178.94
25.52	3485.99
25.54	3124.75
25.56	3287.31
25.58	3178.94
25.6	3233.12
25.62	3106.69
25.64	3160.88
25.66	3449.87
25.68	3413.75
25.7	3052.5
25.72	3359.56
25.74	3522.12
25.76	3377.62
25.78	3359.56
25.8	3160.88
25.82	3883.36
25.84	3558.24
25.86	2926.07
25.88	3449.87
25.9	3558.24
25.92	4118.17
25.94	3793.05
25.96	3558.24
25.98	4027.86
26	3522.12
26.02	3811.11
26.04	3738.86
26.06	3558.24
26.08	3991.73
26.1	4172.36
26.12	4587.79
26.14	4063.98
26.16	4009.8
26.18	4045.92
26.2	4045.92
26.22	4136.23
26.24	3467.93
26.26	3233.12
26.28	3467.93
26.3	3233.12
26.32	2727.38
26.34	2926.07
26.36	3323.44
26.38	3160.88
26.4	2944.13
26.42	2980.25
26.44	2962.19
26.46	2926.07
26.48	3215.06
26.5	3269.25
26.52	2944.13
26.54	2889.94
26.56	2492.58
26.58	2781.57
26.6	2962.19
26.62	2817.69
26.64	2835.76
26.66	2781.57
26.68	2655.14
26.7	2673.2
26.72	2908.01
26.74	2438.39
26.76	2709.32
26.78	2619.01
26.8	2582.89
26.82	2420.33
26.84	2745.45
26.86	2745.45
26.88	2564.82
26.9	3052.5
26.92	2799.63
26.94	2582.89
26.96	2239.71
26.98	2889.94
27	2853.82
27.02	2637.07
27.04	2564.82
27.06	2709.32
27.08	2835.76
27.1	2438.39
27.12	2492.58
27.14	2727.38
27.16	2384.2
27.18	2637.07
27.2	2582.89
27.22	2546.76
27.24	2673.2
27.26	2926.07
27.28	2348.08
27.3	2510.64
27.32	2348.08
27.34	2637.07
27.36	2095.21
27.38	2456.45
27.4	2420.33
27.42	2239.71
27.44	2293.89
27.46	2402.27
27.48	2348.08
27.5	2275.83
27.52	2619.01
27.54	2727.38
27.56	2474.51
27.58	2510.64
27.6	2348.08
27.62	2420.33
27.64	2474.51
27.66	2348.08
27.68	2727.38
27.7	2727.38
27.72	2149.4
27.74	2510.64
27.76	2311.95
27.78	2709.32
27.8	2438.39
27.82	2564.82
27.84	2546.76
27.86	3197
27.88	2691.26
27.9	2167.46
27.92	2546.76
27.94	2311.95
27.96	2564.82
27.98	2492.58
28	2185.52
28.02	2546.76
28.04	2510.64
28.06	2655.14
28.08	2962.19
28.1	2474.51
28.12	2366.14
28.14	2348.08
28.16	2330.02
28.18	2438.39
28.2	2330.02
28.22	2510.64
28.24	2492.58
28.26	2330.02
28.28	2167.46
28.3	2348.08
28.32	2131.33
28.34	2456.45
28.36	2438.39
28.38	2330.02
28.4	2637.07
28.42	2492.58
28.44	2203.58
28.46	2311.95
28.48	2167.46
28.5	2167.46
28.52	2275.83
28.54	2095.21
28.56	2420.33
28.58	2293.89
28.6	2655.14
28.62	2402.27
28.64	2456.45
28.66	2239.71
28.68	2619.01
28.7	2293.89
28.72	2745.45
28.74	2131.33
28.76	2041.02
28.78	2311.95
28.8	2095.21
28.82	2781.57
28.84	2131.33
28.86	2619.01
28.88	2438.39
28.9	2004.9
28.92	2095.21
28.94	1860.4
28.96	2257.77
28.98	2149.4
29	2203.58
29.02	2366.14
29.04	2167.46
29.06	2113.27
29.08	2167.46
29.1	2311.95
29.12	2474.51
29.14	2348.08
29.16	2420.33
29.18	2311.95
29.2	2492.58
29.22	2059.08
29.24	2366.14
29.26	2420.33
29.28	2348.08
29.3	2275.83
29.32	2113.27
29.34	2510.64
29.36	2456.45
29.38	2239.71
29.4	2131.33
29.42	2149.4
29.44	2492.58
29.46	2113.27
29.48	2781.57
29.5	2239.71
29.52	2384.2
29.54	1968.77
29.56	2366.14
29.58	2131.33
29.6	2293.89
29.62	2257.77
29.64	2221.64
29.66	1950.71
29.68	2004.9
29.7	2257.77
29.72	2311.95
29.74	2167.46
29.76	2546.76
29.78	2167.46
29.8	1806.21
29.82	1950.71
29.84	1860.4
29.86	1788.15
29.88	1896.53
29.9	2041.02
29.92	2203.58
29.94	1986.84
29.96	2456.45
29.98	2131.33
30	2348.08
30.02	2022.96
30.04	2420.33
30.06	2257.77
30.08	2077.15
30.1	2221.64
30.12	1878.46
30.14	1806.21
30.16	1932.65
30.18	2203.58
30.2	2257.77
30.22	1968.77
30.24	1752.03
30.26	1986.84
30.28	2149.4
30.3	2131.33
30.32	2311.95
30.34	1788.15
30.36	1950.71
30.38	1878.46
30.4	1932.65
30.42	2041.02
30.44	2095.21
30.46	1914.59
30.48	1896.53
30.5	2095.21
30.52	2004.9
30.54	1697.84
30.56	2059.08
30.58	2239.71
30.6	1986.84
30.62	1878.46
30.64	1896.53
30.66	2095.21
30.68	2059.08
30.7	2330.02
30.72	1986.84
30.74	2293.89
30.76	2185.52
30.78	2022.96
30.8	2257.77
30.82	2059.08
30.84	2203.58
30.86	2131.33
30.88	2167.46
30.9	2059.08
30.92	1914.59
30.94	1896.53
30.96	2293.89
30.98	1752.03
31	2239.71
31.02	2257.77
31.04	1968.77
31.06	1950.71
31.08	2185.52
31.1	1842.34
31.12	2149.4
31.14	1788.15
31.16	1715.9
31.18	1860.4
31.2	1806.21
31.22	1914.59
31.24	2203.58
31.26	1824.28
31.28	2004.9
31.3	1878.46
31.32	1932.65
31.34	1535.28
31.36	1824.28
31.38	2257.77
31.4	2022.96
31.42	2113.27
31.44	2077.15
31.46	1950.71
31.48	1661.72
31.5	1932.65
31.52	1643.66
31.54	2041.02
31.56	1842.34
31.58	1752.03
31.6	2167.46
31.62	1968.77
31.64	1535.28
31.66	1806.21
31.68	2113.27
31.7	1950.71
31.72	1824.28
31.74	2022.96
31.76	1788.15
31.78	1661.72
31.8	1842.34
31.82	1914.59
31.84	1733.97
31.86	1860.4
31.88	1643.66
31.9	1932.65
31.92	1878.46
31.94	1788.15
31.96	1878.46
31.98	2022.96
32	1896.53
32.02	1770.09
32.04	2059.08
32.06	2059.08
32.08	1914.59
32.1	1968.77
32.12	1806.21
32.14	2004.9
32.16	1914.59
32.18	2059.08
32.2	1770.09
32.22	1770.09
32.24	1914.59
32.26	1806.21
32.28	2311.95
32.3	1986.84
32.32	1896.53
32.34	1986.84
32.36	1914.59
32.38	1968.77
32.4	1733.97
32.42	1715.9
32.44	1752.03
32.46	2113.27
32.48	1770.09
32.5	1770.09
32.52	1752.03
32.54	1679.78
32.56	1788.15
32.58	1788.15
32.6	1679.78
32.62	1733.97
32.64	1878.46
32.66	1770.09
32.68	1553.34
32.7	1571.41
32.72	1697.84
32.74	1878.46
32.76	1679.78
32.78	2022.96
32.8	1444.97
32.82	1643.66
32.84	1968.77
32.86	1715.9
32.88	1643.66
32.9	1752.03
32.92	1806.21
32.94	1842.34
32.96	1968.77
32.98	1806.21
33	1661.72
33.02	1733.97
33.04	1661.72
33.06	1607.53
33.08	1625.59
33.1	1390.79
33.12	1788.15
33.14	1589.47
33.16	1553.34
33.18	1715.9
33.2	1408.85
33.22	1481.1
33.24	1589.47
33.26	1770.09
33.28	1246.29
33.3	1752.03
33.32	1553.34
33.34	1824.28
33.36	1806.21
33.38	1444.97
33.4	1770.09
33.42	1535.28
33.44	1499.16
33.46	1499.16
33.48	1571.41
33.5	1589.47
33.52	1661.72
33.54	1481.1
33.56	1354.66
33.58	1481.1
33.6	1806.21
33.62	1499.16
33.64	1733.97
33.66	1390.79
33.68	1535.28
33.7	1697.84
33.72	1481.1
33.74	1499.16
33.76	1535.28
33.78	1842.34
33.8	1625.59
33.82	1661.72
33.84	1481.1
33.86	1463.03
33.88	1625.59
33.9	1679.78
33.92	1932.65
33.94	1661.72
33.96	1481.1
33.98	1697.84
34	1535.28
34.02	1571.41
34.04	1607.53
34.06	1607.53
34.08	1661.72
34.1	1517.22
34.12	1733.97
34.14	1752.03
34.16	1481.1
34.18	1481.1
34.2	1643.66
34.22	1625.59
34.24	1770.09
34.26	1571.41
34.28	1625.59
34.3	1517.22
34.32	1571.41
34.34	1553.34
34.36	1553.34
34.38	1842.34
34.4	1968.77
34.42	1806.21
34.44	1643.66
34.46	1463.03
34.48	1535.28
34.5	1444.97
34.52	1553.34
34.54	1643.66
34.56	1806.21
34.58	1571.41
34.6	1589.47
34.62	1408.85
34.64	1210.16
34.66	1571.41
34.68	1571.41
34.7	1282.41
34.72	1697.84
34.74	1444.97
34.76	1571.41
34.78	1806.21
34.8	1571.41
34.82	1589.47
34.84	1426.91
34.86	1336.6
34.88	1318.54
34.9	1318.54
34.92	1607.53
34.94	1553.34
34.96	1408.85
34.98	1625.59
35	1426.91
35.02	1571.41
35.04	1372.72
35.06	1336.6
35.08	1282.41
35.1	1318.54
35.12	1444.97
35.14	1589.47
35.16	1733.97
35.18	1715.9
35.2	1517.22
35.22	1408.85
35.24	1535.28
35.26	1607.53
35.28	1607.53
35.3	1318.54
35.32	1318.54
35.34	1246.29
35.36	1499.16
35.38	1535.28
35.4	1282.41
35.42	1535.28
35.44	1408.85
35.46	1210.16
35.48	1553.34
35.5	1607.53
35.52	1824.28
35.54	1535.28
35.56	1354.66
35.58	1661.72
35.6	1444.97
35.62	1733.97
35.64	1318.54
35.66	1192.1
35.68	1210.16
35.7	1589.47
35.72	1408.85
35.74	1228.23
35.76	1426.91
35.78	1390.79
35.8	1661.72
35.82	1372.72
35.84	1408.85
35.86	1499.16
35.88	1463.03
35.9	1589.47
35.92	1499.16
35.94	1535.28
35.96	1481.1
35.98	1752.03
36	1499.16
36.02	1517.22
36.04	1697.84
36.06	1426.91
36.08	1517.22
36.1	1444.97
36.12	1499.16
36.14	1481.1
36.16	1481.1
36.18	1408.85
36.2	1661.72
36.22	1553.34
36.24	1282.41
36.26	1571.41
36.28	1607.53
36.3	1210.16
36.32	1463.03
36.34	1444.97
36.36	1553.34
36.38	1463.03
36.4	1228.23
36.42	1589.47
36.44	1192.1
36.46	1192.1
36.48	1625.59
36.5	1463.03
36.52	1336.6
36.54	1426.91
36.56	1408.85
36.58	1481.1
36.6	1246.29
36.62	1444.97
36.64	1607.53
36.66	1499.16
36.68	1625.59
36.7	1318.54
36.72	1083.73
36.74	1481.1
36.76	1607.53
36.78	1336.6
36.8	1408.85
36.82	1318.54
36.84	1571.41
36.86	1643.66
36.88	1607.53
36.9	1246.29
36.92	1354.66
36.94	1137.92
36.96	1137.92
36.98	1318.54
37	1625.59
37.02	1517.22
37.04	1499.16
37.06	1535.28
37.08	1679.78
37.1	1354.66
37.12	1390.79
37.14	1589.47
37.16	1372.72
37.18	1463.03
37.2	1372.72
37.22	1408.85
37.24	1119.85
37.26	1228.23
37.28	1390.79
37.3	1336.6
37.32	1535.28
37.34	1354.66
37.36	1643.66
37.38	1408.85
37.4	1246.29
37.42	1390.79
37.44	1372.72
37.46	1336.6
37.48	1192.1
37.5	1137.92
37.52	1155.98
37.54	1499.16
37.56	1517.22
37.58	1517.22
37.6	1137.92
37.62	1029.54
37.64	1336.6
37.66	1408.85
37.68	1481.1
37.7	1318.54
37.72	1517.22
37.74	1155.98
37.76	1553.34
37.78	1553.34
37.8	1444.97
37.82	1553.34
37.84	1372.72
37.86	1517.22
37.88	1318.54
37.9	1282.41
37.92	1011.48
37.94	1174.04
37.96	1174.04
37.98	1426.91
38	1246.29
38.02	1264.35
38.04	1300.47
38.06	1715.9
38.08	1517.22
38.1	1607.53
38.12	1065.67
38.14	1553.34
38.16	1336.6
38.18	1336.6
38.2	1210.16
38.22	1282.41
38.24	1408.85
38.26	1517.22
38.28	1571.41
38.3	1300.47
38.32	957.294
38.34	1318.54
38.36	1499.16
38.38	1426.91
38.4	1571.41
38.42	1264.35
38.44	1264.35
38.46	1607.53
38.48	1155.98
38.5	1101.79
38.52	1390.79
38.54	1264.35
38.56	1264.35
38.58	1481.1
38.6	1264.35
38.62	1408.85
38.64	1137.92
38.66	1354.66
38.68	1282.41
38.7	1210.16
38.72	1408.85
38.74	1210.16
38.76	1336.6
38.78	1426.91
38.8	1155.98
38.82	1264.35
38.84	1354.66
38.86	1390.79
38.88	1192.1
38.9	1408.85
38.92	1661.72
38.94	1426.91
38.96	1246.29
38.98	1481.1
39	1192.1
39.02	1300.47
39.04	1354.66
39.06	885.045
39.08	1390.79
39.1	1210.16
39.12	1119.85
39.14	1192.1
39.16	1300.47
39.18	993.418
39.2	1282.41
39.22	1282.41
39.24	1119.85
39.26	1264.35
39.28	1047.6
39.3	1372.72
39.32	993.418
39.34	1481.1
39.36	1318.54
39.38	1228.23
39.4	1318.54
39.42	1481.1
39.44	1029.54
39.46	993.418
39.48	1192.1
39.5	1426.91
39.52	1372.72
39.54	1282.41
39.56	1426.91
39.58	1101.79
39.6	1318.54
39.62	1210.16
39.64	1083.73
39.66	1517.22
39.68	1481.1
39.7	1282.41
39.72	1463.03
39.74	1426.91
39.76	1300.47
39.78	1228.23
39.8	1390.79
39.82	1300.47
39.84	1463.03
39.86	1174.04
39.88	1499.16
39.9	1336.6
39.92	1426.91
39.94	1065.67
39.96	1228.23
39.98	903.107
40	1589.47
40.02	1174.04
40.04	1282.41
40.06	1192.1
40.08	1372.72
40.1	1535.28
40.12	1246.29
40.14	1336.6
40.16	1625.59
40.18	1246.29
40.2	1571.41
40.22	1192.1
40.24	1137.92
40.26	1065.67
40.28	1390.79
40.3	1246.29
40.32	1300.47
40.34	1029.54
40.36	1336.6
40.38	1354.66
40.4	1300.47
40.42	1463.03
40.44	1264.35
40.46	1246.29
40.48	1318.54
40.5	1119.85
40.52	1210.16
40.54	1300.47
40.56	1318.54
40.58	1083.73
40.6	1192.1
40.62	1228.23
40.64	1336.6
40.66	1228.23
40.68	1210.16
40.7	1210.16
40.72	1011.48
40.74	1318.54
40.76	1246.29
40.78	1155.98
40.8	1264.35
40.82	1336.6
40.84	1264.35
40.86	1318.54
40.88	1246.29
40.9	1426.91
40.92	1264.35
40.94	1372.72
40.96	1571.41
40.98	1210.16
41	1029.54
41.02	1228.23
41.04	1174.04
41.06	1155.98
41.08	1517.22
41.1	1192.1
41.12	1300.47
41.14	1174.04
41.16	1300.47
41.18	1264.35
41.2	1246.29
41.22	1119.85
41.24	1246.29
41.26	1264.35
41.28	1101.79
41.3	1155.98
41.32	1228.23
41.34	1011.48
41.36	1426.91
41.38	1137.92
41.4	1083.73
41.42	1155.98
41.44	1174.04
41.46	1101.79
41.48	1282.41
41.5	1192.1
41.52	1390.79
41.54	1210.16
41.56	1101.79
41.58	957.294
41.6	1300.47
41.62	1228.23
41.64	1192.1
41.66	1101.79
41.68	1282.41
41.7	1426.91
41.72	1029.54
41.74	1264.35
41.76	1119.85
41.78	1155.98
41.8	1174.04
41.82	1192.1
41.84	1155.98
41.86	1083.73
41.88	993.418
41.9	1083.73
41.92	993.418
41.94	1083.73
41.96	1137.92
41.98	1137.92
42	1390.79
42.02	1535.28
42.04	1210.16
42.06	1192.1
42.08	1210.16
42.1	1029.54
42.12	1155.98
42.14	1264.35
42.16	1336.6
42.18	1300.47
42.2	1210.16
42.22	1192.1
42.24	1426.91
42.26	1011.48
42.28	1192.1
42.3	993.418
42.32	1119.85
42.34	1282.41
42.36	1228.23
42.38	1083.73
42.4	1065.67
42.42	939.232
42.44	1065.67
42.46	1101.79
42.48	1155.98
42.5	1228.23
42.52	1192.1
42.54	1083.73
42.56	1246.29
42.58	1011.48
42.6	1210.16
42.62	1083.73
42.64	1119.85
42.66	1499.16
42.68	1101.79
42.7	1408.85
42.72	1282.41
42.74	1228.23
42.76	1174.04
42.78	1174.04
42.8	1101.79
42.82	1264.35
42.84	1390.79
42.86	1155.98
42.88	1065.67
42.9	1065.67
42.92	1083.73
42.94	1155.98
42.96	957.294
42.98	1065.67
43	1192.1
43.02	1065.67
43.04	1318.54
43.06	1282.41
43.08	1300.47
43.1	1137.92
43.12	1011.48
43.14	1065.67
43.16	1101.79
43.18	993.418
43.2	1137.92
43.22	957.294
43.24	1065.67
43.26	1083.73
43.28	975.356
43.3	1228.23
43.32	1137.92
43.34	1246.29
43.36	1029.54
43.38	993.418
43.4	1029.54
43.42	1155.98
43.44	1101.79
43.46	1137.92
43.48	1119.85
43.5	1101.79
43.52	1065.67
43.54	921.169
43.56	1336.6
43.58	1119.85
43.6	1174.04
43.62	1155.98
43.64	993.418
43.66	1119.85
43.68	903.107
43.7	993.418
43.72	1282.41
43.74	1011.48
43.76	993.418
43.78	1011.48
43.8	1101.79
43.82	1192.1
43.84	1318.54
43.86	993.418
43.88	993.418
43.9	1155.98
43.92	1300.47
43.94	1029.54
43.96	1065.67
43.98	1264.35
44	1174.04
44.02	1047.6
44.04	1228.23
44.06	921.169
44.08	1192.1
44.1	1155.98
44.12	1174.04
44.14	1137.92
44.16	1065.67
44.18	1174.04
44.2	1535.28
44.22	1246.29
44.24	1318.54
44.26	1372.72
44.28	1155.98
44.3	1192.1
44.32	957.294
44.34	1047.6
44.36	1372.72
44.38	1101.79
44.4	1029.54
44.42	1336.6
44.44	1228.23
44.46	1246.29
44.48	1155.98
44.5	1065.67
44.52	1029.54
44.54	1499.16
44.56	1426.91
44.58	1047.6
44.6	993.418
44.62	1354.66
44.64	1029.54
44.66	1282.41
44.68	1101.79
44.7	1192.1
44.72	1119.85
44.74	1137.92
44.76	1137.92
44.78	1264.35
44.8	1155.98
44.82	1047.6
44.84	1047.6
44.86	939.232
44.88	975.356
44.9	921.169
44.92	830.859
44.94	1011.48
44.96	975.356
44.98	1101.79
45	1047.6
45.02	1011.48
45.04	1083.73
45.06	830.859
45.08	1264.35
45.1	1083.73
45.12	939.232
45.14	1119.85
45.16	1119.85
45.18	1083.73
45.2	1282.41
45.22	1192.1
45.24	957.294
45.26	1047.6
45.28	1047.6
45.3	1065.67
45.32	939.232
45.34	993.418
45.36	1029.54
45.38	975.356
45.4	1101.79
45.42	1065.67
45.44	957.294
45.46	1029.54
45.48	1119.85
45.5	1119.85
45.52	1119.85
45.54	1192.1
45.56	939.232
45.58	1101.79
45.6	1083.73
45.62	903.107
45.64	1011.48
45.66	1029.54
45.68	830.859
45.7	885.045
45.72	866.983
45.74	1155.98
45.76	975.356
45.78	794.734
45.8	1174.04
45.82	1029.54
45.84	848.921
45.86	830.859
45.88	1264.35
45.9	866.983
45.92	975.356
45.94	921.169
45.96	885.045
45.98	885.045
46	1119.85
46.02	1155.98
46.04	1029.54
46.06	903.107
46.08	939.232
46.1	939.232
46.12	1011.48
46.14	993.418
46.16	1119.85
46.18	812.797
46.2	1246.29
46.22	758.61
46.24	1155.98
46.26	1047.6
46.28	903.107
46.3	939.232
46.32	1029.54
46.34	1101.79
46.36	921.169
46.38	1047.6
46.4	1083.73
46.42	939.232
46.44	903.107
46.46	1065.67
46.48	1155.98
46.5	1029.54
46.52	1065.67
46.54	848.921
46.56	1174.04
46.58	903.107
46.6	740.548
46.62	1011.48
46.64	939.232
46.66	975.356
46.68	903.107
46.7	1083.73
46.72	957.294
46.74	1174.04
46.76	1137.92
46.78	957.294
46.8	939.232
46.82	975.356
46.84	903.107
46.86	885.045
46.88	1011.48
46.9	921.169
46.92	993.418
46.94	812.797
46.96	1011.48
46.98	885.045
47	1029.54
47.02	1011.48
47.04	939.232
47.06	1029.54
47.08	794.734
47.1	903.107
47.12	885.045
47.14	848.921
47.16	794.734
47.18	1155.98
47.2	903.107
47.22	885.045
47.24	903.107
47.26	903.107
47.28	1083.73
47.3	686.362
47.32	1047.6
47.34	1101.79
47.36	1318.54
47.38	885.045
47.4	794.734
47.42	668.299
47.44	903.107
47.46	921.169
47.48	921.169
47.5	812.797
47.52	1065.67
47.54	1029.54
47.56	1047.6
47.58	1119.85
47.6	975.356
47.62	957.294
47.64	1137.92
47.66	1119.85
47.68	614.113
47.7	794.734
47.72	1065.67
47.74	866.983
47.76	993.418
47.78	885.045
47.8	975.356
47.82	885.045
47.84	1065.67
47.86	866.983
47.88	740.548
47.9	866.983
47.92	830.859
47.94	1137.92
47.96	866.983
47.98	794.734
48	776.672
48.02	848.921
48.04	866.983
48.06	830.859
48.08	812.797
48.1	776.672
48.12	921.169
48.14	1174.04
48.16	1192.1
48.18	650.237
48.2	957.294
48.22	1011.48
48.24	848.921
48.26	1065.67
48.28	812.797
48.3	1011.48
48.32	866.983
48.34	885.045
48.36	939.232
48.38	921.169
48.4	1137.92
48.42	885.045
48.44	848.921
48.46	722.486
48.48	830.859
48.5	830.859
48.52	975.356
48.54	812.797
48.56	830.859
48.58	794.734
48.6	740.548
48.62	921.169
48.64	848.921
48.66	957.294
48.68	794.734
48.7	722.486
48.72	776.672
48.74	722.486
48.76	866.983
48.78	921.169
48.8	939.232
48.82	1029.54
48.84	866.983
48.86	903.107
48.88	1029.54
48.9	885.045
48.92	776.672
48.94	903.107
48.96	975.356
48.98	885.045
49	740.548
49.02	939.232
49.04	957.294
49.06	975.356
49.08	758.61
49.1	776.672
49.12	776.672
49.14	830.859
49.16	903.107
49.18	758.61
49.2	794.734
49.22	632.175
49.24	903.107
49.26	866.983
49.28	776.672
49.3	668.299
49.32	758.61
49.34	794.734
49.36	740.548
49.38	830.859
49.4	848.921
49.42	776.672
49.44	722.486
49.46	794.734
49.48	740.548
49.5	830.859
49.52	848.921
49.54	866.983
49.56	794.734
49.58	650.237
49.6	758.61
49.62	794.734
49.64	939.232
49.66	830.859
49.68	1083.73
49.7	740.548
49.72	812.797
49.74	722.486
49.76	1047.6
49.78	830.859
49.8	794.734
49.82	758.61
49.84	830.859
49.86	614.113
49.88	866.983
49.9	903.107
49.92	866.983
49.94	758.61
49.96	885.045
49.98	885.045
50	1029.54
50.02	848.921
50.04	866.983
50.06	830.859
50.08	776.672
50.1	686.362
50.12	632.175
50.14	722.486
50.16	650.237
50.18	939.232
50.2	704.424
50.22	794.734
50.24	1083.73
50.26	1011.48
50.28	794.734
50.3	921.169
50.32	903.107
50.34	830.859
50.36	596.051
50.38	903.107
50.4	650.237
50.42	722.486
50.44	686.362
50.46	866.983
50.48	848.921
50.5	957.294
50.52	975.356
50.54	957.294
50.56	812.797
50.58	830.859
50.6	740.548
50.62	632.175
50.64	812.797
50.66	866.983
50.68	596.051
50.7	541.864
50.72	614.113
50.74	559.927
50.76	812.797
50.78	939.232
50.8	830.859
50.82	812.797
50.84	830.859
50.86	812.797
50.88	921.169
50.9	704.424
50.92	740.548
50.94	1011.48
50.96	596.051
50.98	921.169
51	830.859
51.02	903.107
51.04	866.983
51.06	686.362
51.08	686.362
51.1	704.424
51.12	848.921
51.14	614.113
51.16	668.299
51.18	776.672
51.2	650.237
51.22	722.486
51.24	722.486
51.26	596.051
51.28	523.802
51.3	740.548
51.32	632.175
51.34	848.921
51.36	686.362
51.38	921.169
51.4	632.175
51.42	704.424
51.44	921.169
51.46	1029.54
51.48	614.113
51.5	848.921
51.52	794.734
51.54	885.045
51.56	866.983
51.58	541.864
51.6	812.797
51.62	704.424
51.64	812.797
51.66	903.107
51.68	939.232
51.7	523.802
51.72	921.169
51.74	740.548
51.76	704.424
51.78	650.237
51.8	830.859
51.82	632.175
51.84	830.859
51.86	776.672
51.88	740.548
51.9	650.237
51.92	758.61
51.94	885.045
51.96	776.672
51.98	686.362
52	704.424
52.02	704.424
52.04	758.61
52.06	848.921
52.08	704.424
52.1	740.548
52.12	668.299
52.14	830.859
52.16	632.175
52.18	614.113
52.2	632.175
52.22	776.672
52.24	614.113
52.26	668.299
52.28	722.486
52.3	632.175
52.32	812.797
52.34	848.921
52.36	939.232
52.38	596.051
52.4	740.548
52.42	740.548
52.44	668.299
52.46	614.113
52.48	848.921
52.5	830.859
52.52	704.424
52.54	668.299
52.56	830.859
52.58	903.107
52.6	794.734
52.62	866.983
52.64	632.175
52.66	848.921
52.68	704.424
52.7	794.734
52.72	632.175
52.74	632.175
52.76	740.548
52.78	541.864
52.8	866.983
52.82	704.424
52.84	794.734
52.86	794.734
52.88	903.107
52.9	704.424
52.92	686.362
52.94	704.424
52.96	776.672
52.98	848.921
53	722.486
53.02	614.113
53.04	650.237
53.06	812.797
53.08	577.989
53.1	740.548
53.12	758.61
53.14	577.989
53.16	722.486
53.18	614.113
53.2	505.74
53.22	776.672
53.24	830.859
53.26	722.486
53.28	541.864
53.3	668.299
53.32	848.921
53.34	686.362
53.36	848.921
53.38	812.797
53.4	812.797
53.42	487.678
53.44	722.486
53.46	848.921
53.48	523.802
53.5	559.927
53.52	704.424
53.54	722.486
53.56	686.362
53.58	686.362
53.6	614.113
53.62	722.486
53.64	668.299
53.66	885.045
53.68	668.299
53.7	577.989
53.72	650.237
53.74	722.486
53.76	740.548
53.78	722.486
53.8	830.859
53.82	794.734
53.84	668.299
53.86	415.429
53.88	722.486
53.9	614.113
53.92	794.734
53.94	650.237
53.96	559.927
53.98	704.424
54	740.548
54.02	614.113
54.04	866.983
54.06	812.797
54.08	614.113
54.1	596.051
54.12	614.113
54.14	794.734
54.16	559.927
54.18	559.927
54.2	830.859
54.22	758.61
54.24	722.486
54.26	614.113
54.28	758.61
54.3	614.113
54.32	577.989
54.34	614.113
54.36	794.734
54.38	650.237
54.4	812.797
54.42	866.983
54.44	577.989
54.46	686.362
54.48	704.424
54.5	632.175
54.52	686.362
54.54	758.61
54.56	668.299
54.58	776.672
54.6	650.237
54.62	812.797
54.64	523.802
54.66	632.175
54.68	650.237
54.7	776.672
54.72	632.175
54.74	794.734
54.76	758.61
54.78	523.802
54.8	596.051
54.82	866.983
54.84	722.486
54.86	433.492
54.88	632.175
54.9	722.486
54.92	758.61
54.94	596.051
54.96	740.548
54.98	722.486
55	794.734
55.02	740.548
55.04	812.797
55.06	668.299
55.08	541.864
55.1	939.232
55.12	596.051
55.14	704.424
55.16	686.362
55.18	812.797
55.2	614.113
55.22	541.864
55.24	632.175
55.26	758.61
55.28	505.74
55.3	758.61
55.32	632.175
55.34	650.237
55.36	523.802
55.38	614.113
55.4	614.113
55.42	848.921
55.44	758.61
55.46	758.61
55.48	632.175
55.5	776.672
55.52	740.548
55.54	668.299
55.56	848.921
55.58	866.983
55.6	794.734
55.62	794.734
55.64	758.61
55.66	668.299
55.68	722.486
55.7	794.734
55.72	487.678
55.74	559.927
55.76	722.486
55.78	866.983
55.8	614.113
55.82	577.989
55.84	704.424
55.86	848.921
55.88	704.424
55.9	505.74
55.92	812.797
55.94	632.175
55.96	885.045
55.98	776.672
56	758.61
56.02	577.989
56.04	577.989
56.06	614.113
56.08	559.927
56.1	614.113
56.12	596.051
56.14	632.175
56.16	541.864
56.18	632.175
56.2	577.989
56.22	596.051
56.24	541.864
56.26	541.864
56.28	885.045
56.3	632.175
56.32	577.989
56.34	614.113
56.36	577.989
56.38	686.362
56.4	577.989
56.42	686.362
56.44	704.424
56.46	704.424
56.48	812.797
56.5	559.927
56.52	848.921
56.54	668.299
56.56	740.548
56.58	596.051
56.6	650.237
56.62	704.424
56.64	596.051
56.66	541.864
56.68	794.734
56.7	668.299
56.72	722.486
56.74	433.492
56.76	758.61
56.78	632.175
56.8	668.299
56.82	740.548
56.84	632.175
56.86	668.299
56.88	794.734
56.9	523.802
56.92	812.797
56.94	740.548
56.96	632.175
56.98	577.989
57	614.113
57.02	523.802
57.04	776.672
57.06	596.051
57.08	596.051
57.1	830.859
57.12	505.74
57.14	541.864
57.16	668.299
57.18	614.113
57.2	523.802
57.22	776.672
57.24	722.486
57.26	650.237
57.28	469.616
57.3	487.678
57.32	668.299
57.34	722.486
57.36	650.237
57.38	812.797
57.4	505.74
57.42	632.175
57.44	650.237
57.46	740.548
57.48	686.362
57.5	541.864
57.52	704.424
57.54	577.989
57.56	614.113
57.58	596.051
57.6	559.927
57.62	686.362
57.64	686.362
57.66	523.802
57.68	523.802
57.7	487.678
57.72	614.113
57.74	776.672
57.76	596.051
57.78	614.113
57.8	505.74
57.82	794.734
57.84	686.362
57.86	668.299
57.88	469.616
57.9	668.299
57.92	650.237
57.94	559.927
57.96	559.927
57.98	650.237
58	487.678
58.02	686.362
58.04	650.237
58.06	523.802
58.08	596.051
58.1	469.616
58.12	668.299
58.14	523.802
58.16	469.616
58.18	469.616
58.2	559.927
58.22	541.864
58.24	541.864
58.26	668.299
58.28	668.299
58.3	722.486
58.32	740.548
58.34	722.486
58.36	632.175
58.38	650.237
58.4	848.921
58.42	523.802
58.44	614.113
58.46	397.367
58.48	523.802
58.5	686.362
58.52	722.486
58.54	614.113
58.56	632.175
58.58	559.927
58.6	577.989
58.62	614.113
58.64	541.864
58.66	596.051
58.68	686.362
58.7	740.548
58.72	596.051
58.74	577.989
58.76	505.74
58.78	722.486
58.8	740.548
58.82	794.734
58.84	668.299
58.86	632.175
58.88	523.802
58.9	650.237
58.92	469.616
58.94	668.299
58.96	451.554
58.98	614.113
59	794.734
59.02	596.051
59.04	812.797
59.06	487.678
59.08	523.802
59.1	523.802
59.12	577.989
59.14	577.989
59.16	541.864
59.18	632.175
59.2	451.554
59.22	596.051
59.24	523.802
59.26	577.989
59.28	487.678
59.3	523.802
59.32	559.927
59.34	307.056
59.36	505.74
59.38	722.486
59.4	596.051
59.42	596.051
59.44	559.927
59.46	487.678
59.48	523.802
59.5	650.237
59.52	541.864
59.54	632.175
59.56	397.367
59.58	397.367
59.6	379.305
59.62	668.299
59.64	632.175
59.66	577.989
59.68	776.672
59.7	541.864
59.72	505.74
59.74	704.424
59.76	632.175
59.78	632.175
59.8	704.424
59.82	740.548
59.84	523.802
59.86	469.616
59.88	650.237
59.9	596.051
59.92	596.051
59.94	722.486
59.96	668.299
59.98	614.113
60	812.797
59.98	379.305
60	270.932
