Sample	 
Comments	 
Filename	C:\Data\西出研\梅木\210930オペ\PPOChloranil_2θ_θ.raw
Goniometer	SmartLab(In-plane)
Attachment	Zステージ単独
Monochromater	None
X	0
Y	0
Z	0.05294
ScanningMode	2Theta/Theta
ScanningType	Continuos Scanning
X-Ray	40kV/30mA
入射スリット	2/3deg
受光スリット1	20.000mm
受光スリット2	20.000mm
Cu_K-beta	
Start	10
Stop	90
Step	0.01
Speed	10.4018
Offset	0
10	64109.9
10.01	62931
10.02	64959.4
10.03	63485.8
10.04	64942
10.05	63347.1
10.06	65254.1
10.07	65340.8
10.08	64578
10.09	65548.8
10.1	68097.3
10.11	67091.8
10.12	64265.9
10.13	64959.4
10.14	64265.9
10.15	64491.3
10.16	64560.6
10.17	65410.1
10.18	64664.7
10.19	64890
10.2	65340.8
10.21	64543.3
10.22	63988.5
10.23	64768.7
10.24	65306.1
10.25	66381
10.26	66294.3
10.27	65184.8
10.28	66034.2
10.29	66259.6
10.3	65930.2
10.31	65150.1
10.32	65236.8
10.33	66866.4
10.34	65392.8
10.35	64612.7
10.36	65739.5
10.37	67265.1
10.38	66276.9
10.39	66103.6
10.4	65618.2
10.41	68409.3
10.42	65843.5
10.43	65635.5
10.44	67525.2
10.45	65548.8
10.46	66450.3
10.47	66172.9
10.48	64820.7
10.49	68045.3
10.5	66016.9
10.51	66814.4
10.52	67126.4
10.53	67802.5
10.54	66467.6
10.55	67663.9
10.56	65063.4
10.57	66814.4
10.58	67317.1
10.59	67802.5
10.6	67507.8
10.61	67386.5
10.62	66762.4
10.63	67941.2
10.64	68669.4
10.65	68270.6
10.66	66849
10.67	65496.8
10.68	66727.7
10.69	67507.8
10.7	66866.4
10.71	65878.2
10.72	66346.3
10.73	66710.4
10.74	67542.5
10.75	67993.2
10.76	67369.1
10.77	66589
10.78	68860.1
10.79	67178.4
10.8	67975.9
10.81	68704
10.82	66901.1
10.83	68392
10.84	68860.1
10.85	66294.3
10.86	67733.2
10.87	66554.3
10.88	67715.9
10.89	69397.5
10.9	67698.5
10.91	67958.6
10.92	68357.3
10.93	67906.6
10.94	68721.4
10.95	71027.1
10.96	66953.1
10.97	69241.5
10.98	69605.5
10.99	67767.9
11	66866.4
11.01	70125.6
11.02	68183.9
11.03	71737.9
11.04	69276.1
11.05	69986.9
11.06	69310.8
11.07	68097.3
11.08	67854.6
11.09	68669.4
11.1	69432.2
11.11	69050.8
11.12	68322.6
11.13	69865.6
11.14	69952.3
11.15	69536.2
11.16	70923.1
11.17	69900.2
11.18	71235.1
11.19	68270.6
11.2	69137.4
11.21	69206.8
11.22	69848.2
11.23	71027.1
11.24	69986.9
11.25	69882.9
11.26	70767.1
11.27	70403
11.28	70680.4
11.29	70420.3
11.3	70541.7
11.31	70195
11.32	69293.5
11.33	70195
11.34	70732.4
11.35	70143
11.36	69761.6
11.37	70195
11.38	70489.7
11.39	70143
11.4	71425.8
11.41	71547.2
11.42	71148.5
11.43	72119.3
11.44	72968.8
11.45	70420.3
11.46	70229.6
11.47	70697.7
11.48	72032.6
11.49	69726.9
11.5	71079.1
11.51	71287.2
11.52	72778.1
11.53	70385.7
11.54	71148.5
11.55	71547.2
11.56	74113
11.57	72535.4
11.58	71165.8
11.59	71391.2
11.6	71269.8
11.61	72032.6
11.62	72171.3
11.63	72691.4
11.64	73402.2
11.65	70038.9
11.66	71564.5
11.67	72431.4
11.68	73436.9
11.69	71772.6
11.7	70680.4
11.71	73454.2
11.72	70056.3
11.73	72483.4
11.74	71789.9
11.75	73818.3
11.76	72882.1
11.77	72691.4
11.78	73419.5
11.79	73055.5
11.8	73246.2
11.81	73818.3
11.82	73783.6
11.83	73350.2
11.84	74511.7
11.85	73644.9
11.86	72275.3
11.87	74511.7
11.88	72379.3
11.89	72240.7
11.9	72431.4
11.91	73904.9
11.92	74078.3
11.93	72414
11.94	74061
11.95	74234.3
11.96	74927.8
11.97	74581.1
11.98	74858.4
11.99	74511.7
12	71616.5
12.01	74199.7
12.02	74633.1
12.03	72535.4
12.04	73957
12.05	74078.3
12.06	74771.8
12.07	73662.2
12.08	75673.3
12.09	74546.4
12.1	75239.9
12.11	72916.8
12.12	75586.6
12.13	74806.4
12.14	75846.6
12.15	73991.6
12.16	76574.8
12.17	74893.1
12.18	74581.1
12.19	74875.8
12.2	73159.5
12.21	75517.2
12.22	72760.8
12.23	74771.8
12.24	74407.7
12.25	74477
12.26	75898.6
12.27	74737.1
12.28	75517.2
12.29	76505.4
12.3	74581.1
12.31	73072.8
12.32	75811.9
12.33	75447.9
12.34	74581.1
12.35	75933.3
12.36	73679.6
12.37	74927.8
12.38	75742.6
12.39	76800.1
12.4	76124
12.41	76176
12.42	74719.8
12.43	76886.8
12.44	76730.8
12.45	77996.3
12.46	78689.8
12.47	73679.6
12.48	76349.4
12.49	75881.3
12.5	73922.3
12.51	73957
12.52	75343.9
12.53	75118.5
12.54	75517.2
12.55	78083
12.56	78412.4
12.57	75603.9
12.58	77302.9
12.59	79990
12.6	78291
12.61	76678.8
12.62	76210.7
12.63	78863.1
12.64	78689.8
12.65	75655.9
12.66	76193.4
12.67	76505.4
12.68	76834.8
12.69	77892.3
12.7	76366.7
12.71	77614.9
12.72	78637.8
12.73	76228
12.74	77666.9
12.75	78169.7
12.76	78949.8
12.77	79279.2
12.78	77944.3
12.79	76730.8
12.8	79244.5
12.81	78429.7
12.82	76973.5
12.83	77979
12.84	79209.9
12.85	80804.8
12.86	77701.6
12.87	79435.3
12.88	77597.6
12.89	80094
12.9	79192.5
12.91	77562.9
12.92	78013.7
12.93	79140.5
12.94	78880.5
12.95	80666.1
12.96	78759.1
12.97	79868.7
12.98	80267.4
12.99	77372.2
13	78273.7
13.01	77875
13.02	79244.5
13.03	81238.2
13.04	77441.6
13.05	79920.7
13.06	78065.7
13.07	80648.8
13.08	80579.5
13.09	80336.7
13.1	78707.1
13.11	80874.2
13.12	79834
13.13	80284.7
13.14	80250.1
13.15	78083
13.16	79938
13.17	78447.1
13.18	80683.5
13.19	80666.1
13.2	78256.4
13.21	78828.5
13.22	79764.6
13.23	80024.7
13.24	79608.6
13.25	79816.6
13.26	79556.6
13.27	79608.6
13.28	79487.3
13.29	81030.2
13.3	79955.3
13.31	78568.4
13.32	80475.4
13.33	80822.2
13.34	80423.4
13.35	80336.7
13.36	80250.1
13.37	79573.9
13.38	78637.8
13.39	79920.7
13.4	79747.3
13.41	79331.2
13.42	79175.2
13.43	78308.4
13.44	79660.6
13.45	78880.5
13.46	80302.1
13.47	80735.5
13.48	80718.1
13.49	82122.4
13.5	80406.1
13.51	78724.5
13.52	80839.5
13.53	80319.4
13.54	82001
13.55	81272.9
13.56	80596.8
13.57	80718.1
13.58	80579.5
13.59	79348.6
13.6	82798.5
13.61	81064.9
13.62	81238.2
13.63	80111.4
13.64	80319.4
13.65	82053
13.66	82001
13.67	81897
13.68	81862.3
13.69	82365.1
13.7	81567.6
13.71	81741
13.72	80718.1
13.73	78932.5
13.74	82053
13.75	82538.5
13.76	82954.5
13.77	81099.5
13.78	81359.6
13.79	82417.1
13.8	82053
13.81	81602.3
13.82	82625.1
13.83	80804.8
13.84	83578.6
13.85	83526.6
13.86	81619.6
13.87	83561.3
13.88	82174.4
13.89	83127.9
13.9	82070.4
13.91	81186.2
13.92	84012.1
13.93	82313.1
13.94	86109.8
13.95	83821.4
13.96	83231.9
13.97	81342.3
13.98	81394.3
13.99	82607.8
14	82659.8
14.01	82659.8
14.02	80544.8
14.03	82278.4
14.04	80371.4
14.05	80215.4
14.06	82001
14.07	81203.6
14.08	79938
14.09	81827.7
14.1	82711.8
14.11	81030.2
14.12	81515.6
14.13	81099.5
14.14	81255.6
14.15	84896.2
14.16	83457.3
14.17	80735.5
14.18	82486.5
14.19	83665.3
14.2	82625.1
14.21	82139.7
14.22	81272.9
14.23	84428.1
14.24	82833.2
14.25	83596
14.26	82850.5
14.27	83977.4
14.28	82815.8
14.29	83682.7
14.3	82919.9
14.31	84064.1
14.32	83977.4
14.33	83353.3
14.34	81550.3
14.35	82261.1
14.36	81480.9
14.37	82919.9
14.38	83023.9
14.39	82659.8
14.4	83110.6
14.41	83127.9
14.42	82053
14.43	81359.6
14.44	82729.2
14.45	82573.1
14.46	81359.6
14.47	80614.1
14.48	81793
14.49	82087.7
14.5	81463.6
14.51	84376.1
14.52	82902.5
14.53	81758.3
14.54	82833.2
14.55	84168.1
14.56	81602.3
14.57	84965.6
14.58	82105.1
14.59	83994.7
14.6	81654.3
14.61	83231.9
14.62	83700
14.63	82209.1
14.64	80735.5
14.65	82954.5
14.66	82157.1
14.67	82018.4
14.68	83526.6
14.69	84029.4
14.7	84688.2
14.71	80908.8
14.72	82781.2
14.73	83665.3
14.74	82243.7
14.75	83058.6
14.76	81533
14.77	81394.3
14.78	82607.8
14.79	85329.6
14.8	83006.5
14.81	81307.6
14.82	81394.3
14.83	81966.4
14.84	83145.2
14.85	82035.7
14.86	81758.3
14.87	84012.1
14.88	82174.4
14.89	81151.5
14.9	84549.5
14.91	82642.5
14.92	81376.9
14.93	82573.1
14.94	82382.4
14.95	81689
14.96	84480.1
14.97	82070.4
14.98	82053
14.99	80995.5
15	81359.6
15.01	80510.1
15.02	81463.6
15.03	80475.4
15.04	81255.6
15.05	85208.3
15.06	81914.4
15.07	84064.1
15.08	81879.7
15.09	82174.4
15.1	82053
15.11	80250.1
15.12	82555.8
15.13	83249.3
15.14	80579.5
15.15	80908.8
15.16	83405.3
15.17	83162.6
15.18	82885.2
15.19	83075.9
15.2	82659.8
15.21	81151.5
15.22	81272.9
15.23	82659.8
15.24	82729.2
15.25	82815.8
15.26	82347.8
15.27	80926.2
15.28	81775.7
15.29	80267.4
15.3	83509.3
15.31	81793
15.32	81671.6
15.33	82642.5
15.34	80631.5
15.35	81099.5
15.36	81099.5
15.37	80423.4
15.38	82555.8
15.39	80978.2
15.4	81723.6
15.41	81654.3
15.42	79972.7
15.43	79036.5
15.44	79972.7
15.45	79851.3
15.46	80180.7
15.47	82954.5
15.48	80440.8
15.49	80648.8
15.5	81533
15.51	81359.6
15.52	80510.1
15.53	80076.7
15.54	80648.8
15.55	81689
15.56	82521.1
15.57	81082.2
15.58	81810.3
15.59	82521.1
15.6	81168.9
15.61	78031
15.62	80596.8
15.63	79886
15.64	80683.5
15.65	79539.3
15.66	79244.5
15.67	79972.7
15.68	80475.4
15.69	81706.3
15.7	81723.6
15.71	81394.3
15.72	80250.1
15.73	81151.5
15.74	79244.5
15.75	80163.4
15.76	80891.5
15.77	79573.9
15.78	81272.9
15.79	79504.6
15.8	80683.5
15.81	80336.7
15.82	78481.8
15.83	79348.6
15.84	80284.7
15.85	81272.9
15.86	79487.3
15.87	81134.2
15.88	80822.2
15.89	79383.2
15.9	80128.7
15.91	79088.5
15.92	79782
15.93	80440.8
15.94	80683.5
15.95	78568.4
15.96	79036.5
15.97	77840.3
15.98	78967.2
15.99	79556.6
16	78689.8
16.01	78447.1
16.02	77909.6
16.03	80007.4
16.04	79487.3
16.05	81359.6
16.06	79660.6
16.07	79140.5
16.08	80024.7
16.09	78412.4
16.1	78863.1
16.11	76730.8
16.12	79348.6
16.13	78863.1
16.14	79400.6
16.15	76973.5
16.16	78221.7
16.17	77545.6
16.18	78967.2
16.19	80146
16.2	78759.1
16.21	79296.6
16.22	77580.3
16.23	80406.1
16.24	76453.4
16.25	78984.5
16.26	78759.1
16.27	78412.4
16.28	76418.7
16.29	77354.9
16.3	77493.6
16.31	78239
16.32	78325.7
16.33	80007.4
16.34	77337.5
16.35	77198.9
16.36	75326.5
16.37	78031
16.38	77545.6
16.39	77233.5
16.4	78984.5
16.41	76678.8
16.42	79816.6
16.43	76852.1
16.44	75170.5
16.45	77354.9
16.46	74303.7
16.47	77961.7
16.48	76834.8
16.49	78585.8
16.5	77008.2
16.51	77337.5
16.52	76921.5
16.53	79071.2
16.54	79435.3
16.55	77562.9
16.56	74771.8
16.57	76401.4
16.58	77025.5
16.59	77302.9
16.6	76834.8
16.61	76418.7
16.62	77302.9
16.63	77302.9
16.64	76072
16.65	76418.7
16.66	77649.6
16.67	77320.2
16.68	78360.4
16.69	77268.2
16.7	76054.7
16.71	76678.8
16.72	76089.3
16.73	77614.9
16.74	76782.8
16.75	76020
16.76	76037.3
16.77	74719.8
16.78	76852.1
16.79	76574.8
16.8	76730.8
16.81	77580.3
16.82	77320.2
16.83	77562.9
16.84	76384
16.85	76522.7
16.86	76453.4
16.87	77753.6
16.88	75950.6
16.89	76505.4
16.9	76921.5
16.91	74494.4
16.92	74633.1
16.93	76314.7
16.94	75898.6
16.95	76401.4
16.96	75153.2
16.97	73714.3
16.98	75413.2
16.99	76020
17	75465.2
17.01	73540.9
17.02	75517.2
17.03	76037.3
17.04	76124
17.05	73454.2
17.06	74858.4
17.07	75499.9
17.08	75153.2
17.09	75083.8
17.1	74165
17.11	74373
17.12	75725.3
17.13	75395.9
17.14	75465.2
17.15	73957
17.16	72882.1
17.17	74893.1
17.18	75742.6
17.19	72379.3
17.2	72587.4
17.21	73142.1
17.22	73540.9
17.23	74338.4
17.24	74511.7
17.25	74009
17.26	75638.6
17.27	73523.5
17.28	75881.3
17.29	74251.7
17.3	74182.3
17.31	73575.6
17.32	73748.9
17.33	73575.6
17.34	73055.5
17.35	73852.9
17.36	72570
17.37	71720.6
17.38	72535.4
17.39	73107.5
17.4	75361.2
17.41	72084.6
17.42	71304.5
17.43	72951.4
17.44	73176.8
17.45	73870.3
17.46	74286.4
17.47	73662.2
17.48	73696.9
17.49	73176.8
17.5	74269
17.51	72899.4
17.52	72188.6
17.53	72292.7
17.54	72258
17.55	73090.1
17.56	71945.9
17.57	72882.1
17.58	70472.3
17.59	71841.9
17.6	74702.4
17.61	72240.7
17.62	72067.3
17.63	74910.5
17.64	74095.6
17.65	72431.4
17.66	71356.5
17.67	72223.3
17.68	71061.8
17.69	72292.7
17.7	71893.9
17.71	72934.1
17.72	71616.5
17.73	71044.4
17.74	72674.1
17.75	74165
17.76	74442.4
17.77	71252.5
17.78	73766.3
17.79	71928.6
17.8	72812.8
17.81	71720.6
17.82	71859.3
17.83	71061.8
17.84	71876.6
17.85	73003.5
17.86	70125.6
17.87	71807.3
17.88	70611
17.89	70385.7
17.9	71772.6
17.91	71599.2
17.92	70541.7
17.93	70090.9
17.94	71027.1
17.95	71269.8
17.96	72154
17.97	71443.2
17.98	73575.6
17.99	70403
18	71200.5
18.01	71235.1
18.02	69033.4
18.03	69588.2
18.04	69501.5
18.05	69432.2
18.06	71009.8
18.07	71113.8
18.08	71200.5
18.09	70073.6
18.1	70957.8
18.11	71131.1
18.12	70992.4
18.13	70437.7
18.14	68600
18.15	69536.2
18.16	70368.3
18.17	69432.2
18.18	71460.5
18.19	71408.5
18.2	69414.8
18.21	70593.7
18.22	71339.2
18.23	71356.5
18.24	72292.7
18.25	71495.2
18.26	71079.1
18.27	68634.7
18.28	68756
18.29	68842.7
18.3	70992.4
18.31	70888.4
18.32	68825.4
18.33	69016.1
18.34	69605.5
18.35	69449.5
18.36	69692.2
18.37	71651.2
18.38	71599.2
18.39	70455
18.4	69761.6
18.41	68478.7
18.42	70056.3
18.43	72015.3
18.44	70420.3
18.45	69016.1
18.46	69016.1
18.47	68357.3
18.48	68565.3
18.49	68704
18.5	70299
18.51	69501.5
18.52	69761.6
18.53	68149.3
18.54	66519.7
18.55	69397.5
18.56	69640.2
18.57	68686.7
18.58	69570.9
18.59	69102.8
18.6	69484.2
18.61	69848.2
18.62	68998.8
18.63	68964.1
18.64	68773.4
18.65	67490.5
18.66	69120.1
18.67	70090.9
18.68	70090.9
18.69	68877.4
18.7	70541.7
18.71	69813.6
18.72	67958.6
18.73	69241.5
18.74	67334.5
18.75	69085.4
18.76	67577.2
18.77	67559.8
18.78	69224.1
18.79	69986.9
18.8	68392
18.81	67421.1
18.82	68218.6
18.83	70385.7
18.84	68097.3
18.85	69241.5
18.86	68426.7
18.87	69553.5
18.88	67750.5
18.89	68721.4
18.9	67941.2
18.91	67525.2
18.92	67767.9
18.93	65912.9
18.94	69380.2
18.95	68253.3
18.96	67369.1
18.97	68218.6
18.98	69137.4
18.99	69830.9
19	69865.6
19.01	69328.1
19.02	68842.7
19.03	68131.9
19.04	66970.4
19.05	69206.8
19.06	67455.8
19.07	66606.3
19.08	66259.6
19.09	68236
19.1	70004.3
19.11	68236
19.12	67507.8
19.13	67871.9
19.14	67542.5
19.15	66381
19.16	67403.8
19.17	67369.1
19.18	66276.9
19.19	68045.3
19.2	64335.3
19.21	66346.3
19.22	66415.6
19.23	67109.1
19.24	67455.8
19.25	67317.1
19.26	67005.1
19.27	66259.6
19.28	66276.9
19.29	67005.1
19.3	68721.4
19.31	67126.4
19.32	67282.5
19.33	66814.4
19.34	66086.2
19.35	67109.1
19.36	65236.8
19.37	65514.1
19.38	67906.6
19.39	67369.1
19.4	67161.1
19.41	68270.6
19.42	67785.2
19.43	65132.7
19.44	66034.2
19.45	66276.9
19.46	66398.3
19.47	64283.3
19.48	68444
19.49	66849
19.5	67507.8
19.51	65930.2
19.52	66571.7
19.53	65652.8
19.54	68600
19.55	67109.1
19.56	66329
19.57	66693
19.58	66935.7
19.59	67681.2
19.6	65063.4
19.61	65288.8
19.62	67403.8
19.63	66450.3
19.64	65618.2
19.65	67455.8
19.66	64994.1
19.67	65392.8
19.68	66051.6
19.69	66485
19.7	65098.1
19.71	64942
19.72	66831.7
19.73	67091.8
19.74	67143.8
19.75	65236.8
19.76	66485
19.77	65878.2
19.78	66935.7
19.79	65254.1
19.8	66363.6
19.81	66554.3
19.82	64335.3
19.83	65288.8
19.84	64786
19.85	66450.3
19.86	65982.2
19.87	66138.3
19.88	64404.6
19.89	66745
19.9	65860.9
19.91	65028.7
19.92	66745
19.93	64924.7
19.94	64352.6
19.95	63693.8
19.96	66467.6
19.97	67646.5
19.98	64508.6
19.99	65063.4
20	64595.3
20.01	65392.8
20.02	63988.5
20.03	64768.7
20.04	64803.4
20.05	64560.6
20.06	64855.4
20.07	65271.4
20.08	65202.1
20.09	66415.6
20.1	64161.9
20.11	65306.1
20.12	66103.6
20.13	66797
20.14	65375.5
20.15	66016.9
20.16	65548.8
20.17	64283.3
20.18	65479.5
20.19	66155.6
20.2	65722.2
20.21	65479.5
20.22	64474
20.23	64057.9
20.24	67837.2
20.25	65444.8
20.26	66641
20.27	64109.9
20.28	65566.2
20.29	65306.1
20.3	64352.6
20.31	64474
20.32	65132.7
20.33	64387.3
20.34	64352.6
20.35	63087.1
20.36	63607.1
20.37	63711.2
20.38	64890
20.39	65479.5
20.4	63884.5
20.41	65410.1
20.42	63485.8
20.43	64144.6
20.44	62809.7
20.45	63867.2
20.46	62185.6
20.47	63277.8
20.48	64300.6
20.49	63295.1
20.5	64404.6
20.51	64179.2
20.52	64994.1
20.53	64092.6
20.54	64959.4
20.55	65150.1
20.56	62861.7
20.57	64699.3
20.58	64595.3
20.59	62480.3
20.6	65150.1
20.61	62445.6
20.62	63451.1
20.63	64265.9
20.64	61977.5
20.65	63087.1
20.66	64578
20.67	63468.5
20.68	64994.1
20.69	63191.1
20.7	63572.5
20.71	62844.3
20.72	63416.4
20.73	63329.8
20.74	64647.3
20.75	63312.4
20.76	62601.6
20.77	63711.2
20.78	61856.2
20.79	63104.4
20.8	63953.9
20.81	63555.1
20.82	63243.1
20.83	64005.9
20.84	62653.6
20.85	63451.1
20.86	64422
20.87	62549.6
20.88	62012.2
20.89	64422
20.9	63000.4
20.91	64612.7
20.92	64005.9
20.93	61596.1
20.94	63191.1
20.95	61353.4
20.96	63087.1
20.97	63693.8
20.98	64768.7
20.99	62462.9
21	63208.4
21.01	62757.7
21.02	63884.5
21.03	64387.3
21.04	63555.1
21.05	63347.1
21.06	64127.2
21.07	62965.7
21.08	62809.7
21.09	62775
21.1	63451.1
21.11	63104.4
21.12	62636.3
21.13	63607.1
21.14	61214.7
21.15	60295.9
21.16	61405.4
21.17	62150.9
21.18	61977.5
21.19	63624.5
21.2	64092.6
21.21	61942.9
21.22	63052.4
21.23	63537.8
21.24	62081.5
21.25	63763.2
21.26	61318.7
21.27	61717.5
21.28	62879
21.29	62428.3
21.3	63208.4
21.31	62965.7
21.32	61977.5
21.33	63000.4
21.34	62515
21.35	61492.1
21.36	62705.7
21.37	62740.3
21.38	62254.9
21.39	63243.1
21.4	63381.8
21.41	64109.9
21.42	63624.5
21.43	62029.5
21.44	63104.4
21.45	62567
21.46	61960.2
21.47	62844.3
21.48	63347.1
21.49	62341.6
21.5	61700.1
21.51	62653.6
21.52	60087.9
21.53	62497.6
21.54	63364.4
21.55	60555.9
21.56	62289.6
21.57	62012.2
21.58	62688.3
21.59	61613.5
21.6	60122.5
21.61	60937.3
21.62	61648.1
21.63	62324.3
21.64	63468.5
21.65	62879
21.66	62480.3
21.67	60833.3
21.68	62757.7
21.69	62775
21.7	62671
21.71	60555.9
21.72	61856.2
21.73	60555.9
21.74	62931
21.75	62376.3
21.76	63087.1
21.77	61440.1
21.78	60920
21.79	60139.9
21.8	59359.7
21.81	62757.7
21.82	61717.5
21.83	59758.5
21.84	61388.1
21.85	61249.4
21.86	59914.5
21.87	61890.8
21.88	61942.9
21.89	61682.8
21.9	60868
21.91	62150.9
21.92	60868
21.93	62393.6
21.94	60972
21.95	61925.5
21.96	61284.1
21.97	60347.9
21.98	59897.2
21.99	61873.5
22	60365.2
22.01	60417.3
22.02	60608
22.03	61890.8
22.04	59325.1
22.05	60382.6
22.06	60139.9
22.07	62393.6
22.08	60399.9
22.09	60226.6
22.1	61804.2
22.11	58250.2
22.12	61890.8
22.13	60746.6
22.14	61942.9
22.15	60694.6
22.16	60712
22.17	60070.5
22.18	58718.3
22.19	60451.9
22.2	61752.2
22.21	61977.5
22.22	60590.6
22.23	59706.5
22.24	61509.4
22.25	61526.8
22.26	61873.5
22.27	60295.9
22.28	62705.7
22.29	61110.7
22.3	63035
22.31	60018.5
22.32	58926.3
22.33	60486.6
22.34	61336.1
22.35	61422.8
22.36	60538.6
22.37	60018.5
22.38	59827.8
22.39	59671.8
22.4	59758.5
22.41	60105.2
22.42	60243.9
22.43	60573.3
22.44	60417.3
22.45	59134.4
22.46	58770.3
22.47	60798.7
22.48	61284.1
22.49	59879.8
22.5	60035.9
22.51	59238.4
22.52	60191.9
22.53	60399.9
22.54	58770.3
22.55	60243.9
22.56	59359.7
22.57	61076
22.58	60174.5
22.59	58805
22.6	59463.8
22.61	60347.9
22.62	59082.4
22.63	59394.4
22.64	60157.2
22.65	60243.9
22.66	59654.4
22.67	60001.2
22.68	60694.6
22.69	58770.3
22.7	59897.2
22.71	60278.6
22.72	58874.3
22.73	60347.9
22.74	58943.7
22.75	59515.8
22.76	60209.2
22.77	59619.8
22.78	59377.1
22.79	58805
22.8	59533.1
22.81	60018.5
22.82	60712
22.83	58648.9
22.84	58510.3
22.85	59463.8
22.86	59359.7
22.87	59654.4
22.88	60001.2
22.89	58562.3
22.9	57608.8
22.91	59897.2
22.92	59238.4
22.93	59463.8
22.94	58024.8
22.95	59533.1
22.96	60157.2
22.97	60625.3
22.98	61076
22.99	59827.8
23	59151.7
23.01	60243.9
23.02	59342.4
23.03	58943.7
23.04	58423.6
23.05	58076.8
23.06	58284.9
23.07	58961
23.08	57088.7
23.09	56793.9
23.1	58822.3
23.11	58926.3
23.12	59741.1
23.13	59931.8
23.14	59013
23.15	56135.2
23.16	60764
23.17	58579.6
23.18	57938.1
23.19	59862.5
23.2	57626.1
23.21	56898
23.22	58753
23.23	59689.1
23.24	58700.9
23.25	58302.2
23.26	57782.1
23.27	58666.3
23.28	57626.1
23.29	59741.1
23.3	57556.8
23.31	55996.5
23.32	56187.2
23.33	57782.1
23.34	56689.9
23.35	58371.6
23.36	57036.7
23.37	56395.2
23.38	57730.1
23.39	56377.9
23.4	58475.6
23.41	58648.9
23.42	59533.1
23.43	57591.4
23.44	57730.1
23.45	59567.8
23.46	57747.4
23.47	57678.1
23.48	58562.3
23.49	58527.6
23.5	58492.9
23.51	58596.9
23.52	58961
23.53	58822.3
23.54	57990.2
23.55	58440.9
23.56	56932.6
23.57	56932.6
23.58	56395.2
23.59	56915.3
23.6	57140.7
23.61	56048.5
23.62	56135.2
23.63	56499.2
23.64	56585.9
23.65	58336.9
23.66	57730.1
23.67	56846
23.68	55909.8
23.69	57955.5
23.7	57834.1
23.71	57192.7
23.72	57210
23.73	56828.6
23.74	56447.2
23.75	57834.1
23.76	56481.9
23.77	55892.5
23.78	56915.3
23.79	57504.7
23.8	56256.5
23.81	55597.7
23.82	58094.2
23.83	55979.1
23.84	55511.1
23.85	56932.6
23.86	58284.9
23.87	58440.9
23.88	57452.7
23.89	56464.6
23.9	55788.4
23.91	57504.7
23.92	55649.8
23.93	54991
23.94	55441.7
23.95	55996.5
23.96	56117.8
23.97	55251
23.98	55719.1
23.99	56083.2
24	56239.2
24.01	57262
24.02	56013.8
24.03	54436.2
24.04	54089.5
24.05	55875.1
24.06	57504.7
24.07	56551.2
24.08	54730.9
24.09	55199
24.1	57071.3
24.11	54332.2
24.12	53673.4
24.13	55303
24.14	56620.6
24.15	55511.1
24.16	55337.7
24.17	55095
24.18	57366.1
24.19	56065.8
24.2	54401.5
24.21	53725.4
24.22	53985.5
24.23	53500
24.24	54765.6
24.25	52962.6
24.26	52997.3
24.27	54609.6
24.28	54297.5
24.29	53898.8
24.3	53846.8
24.31	53777.4
24.32	53829.4
24.33	53968.1
24.34	54332.2
24.35	54782.9
24.36	53638.7
24.37	53690.7
24.38	54817.6
24.39	52407.8
24.4	53898.8
24.41	53725.4
24.42	54193.5
24.43	51766.4
24.44	52321.2
24.45	52997.3
24.46	55892.5
24.47	54522.9
24.48	54470.9
24.49	52927.9
24.5	52546.5
24.51	53829.4
24.52	52529.2
24.53	53656.1
24.54	52563.9
24.55	53448
24.56	53846.8
24.57	53552
24.58	54280.2
24.59	51645
24.6	54158.8
24.61	53898.8
24.62	52598.5
24.63	51887.8
24.64	53066.6
24.65	52650.6
24.66	53032
24.67	52390.5
24.68	53326.7
24.69	51315.7
24.7	51714.4
24.71	53396
24.72	54262.8
24.73	51367.7
24.74	52338.5
24.75	52546.5
24.76	51454.3
24.77	53760.1
24.78	51627.7
24.79	51523.7
24.8	52789.3
24.81	50518.2
24.82	53222.7
24.83	50760.9
24.84	52893.3
24.85	51055.6
24.86	51541
24.87	50847.6
24.88	51246.3
24.89	51922.4
24.9	52061.1
24.91	50760.9
24.92	50847.6
24.93	52251.8
24.94	50414.2
24.95	50916.9
24.96	49443.3
24.97	49824.7
24.98	50968.9
24.99	52390.5
25	52633.2
25.01	51142.3
25.02	51922.4
25.03	50171.5
25.04	51194.3
25.05	51385
25.06	50206.1
25.07	51697.1
25.08	49668.7
25.09	50622.2
25.1	50084.8
25.11	51194.3
25.12	49235.3
25.13	48992.6
25.14	49651.4
25.15	49356.6
25.16	50292.8
25.17	51627.7
25.18	49720.7
25.19	50154.1
25.2	49530
25.21	50067.4
25.22	48905.9
25.23	49408.7
25.24	49252.6
25.25	50275.5
25.26	49148.6
25.27	50032.8
25.28	49946.1
25.29	49408.7
25.3	49651.4
25.31	49460.7
25.32	50154.1
25.33	49391.3
25.34	49200.6
25.35	48351.1
25.36	48801.9
25.37	49218
25.38	48177.8
25.39	50223.5
25.4	49946.1
25.41	48732.5
25.42	49079.3
25.43	48784.5
25.44	48940.6
25.45	48697.9
25.46	47363
25.47	47206.9
25.48	49131.3
25.49	47640.3
25.5	49703.4
25.51	48524.5
25.52	48593.8
25.53	49408.7
25.54	50882.2
25.55	48975.2
25.56	48923.2
25.57	47397.6
25.58	47397.6
25.59	48195.1
25.6	47640.3
25.61	47311
25.62	48091.1
25.63	49183.3
25.64	46894.9
25.65	47727
25.66	47744.4
25.67	46808.2
25.68	48073.8
25.69	48992.6
25.7	48195.1
25.71	47120.3
25.72	48212.4
25.73	47900.4
25.74	47935.1
25.75	47744.4
25.76	45802.7
25.77	46912.2
25.78	47068.2
25.79	47501.7
25.8	46738.9
25.81	47692.4
25.82	47761.7
25.83	47328.3
25.84	46496.1
25.85	47987.1
25.86	48073.8
25.87	48853.9
25.88	49096.6
25.89	46010.7
25.9	45750.7
25.91	46028.1
25.92	48680.5
25.93	46842.9
25.94	46946.9
25.95	46738.9
25.96	46808.2
25.97	47085.6
25.98	46582.8
25.99	45057.2
26	46114.7
26.01	46166.8
26.02	47172.3
26.03	44675.8
26.04	47206.9
26.05	46860.2
26.06	46946.9
26.07	46790.9
26.08	46842.9
26.09	45924
26.1	47380.3
26.11	45230.6
26.12	45039.9
26.13	45594.7
26.14	44329.1
26.15	45091.9
26.16	44762.5
26.17	45889.4
26.18	46045.4
26.19	43687.7
26.2	44918.5
26.21	46166.8
26.22	46114.7
26.23	46513.5
26.24	44779.8
26.25	45351.9
26.26	45733.3
26.27	44762.5
26.28	44225.1
26.29	44762.5
26.3	45351.9
26.31	45057.2
26.32	43427.6
26.33	44329.1
26.34	44779.8
26.35	45508
26.36	44849.2
26.37	43878.4
26.38	45456
26.39	45646.7
26.4	44623.8
26.41	44155.7
26.42	45889.4
26.43	44069.1
26.44	45109.2
26.45	43687.7
26.46	44103.7
26.47	44779.8
26.48	44121.1
26.49	44762.5
26.5	43011.5
26.51	44519.8
26.52	44433.1
26.53	44727.8
26.54	44138.4
26.55	42283.4
26.56	43670.3
26.57	45178.6
26.58	42578.1
26.59	43809
26.6	44190.4
26.61	44346.4
26.62	44259.8
26.63	43167.6
26.64	43479.6
26.65	44675.8
26.66	44155.7
26.67	44051.7
26.68	44935.9
26.69	43878.4
26.7	43809
26.71	44641.2
26.72	42196.7
26.73	43809
26.74	44259.8
26.75	44155.7
26.76	41659.3
26.77	42058
26.78	43895.7
26.79	42907.5
26.8	41139.2
26.81	42040.7
26.82	42560.8
26.83	43895.7
26.84	43878.4
26.85	42179.4
26.86	43635.6
26.87	43392.9
26.88	42040.7
26.89	40289.7
26.9	41121.9
26.91	42872.8
26.92	43479.6
26.93	43531.6
26.94	43757
26.95	43601
26.96	41676.6
26.97	43635.6
26.98	41659.3
26.99	40480.4
27	41433.9
27.01	42508.8
27.02	42855.5
27.03	40168.4
27.04	41711.3
27.05	43080.9
27.06	42092.7
27.07	41329.9
27.08	42300.7
27.09	44121.1
27.1	40948.5
27.11	40549.8
27.12	41659.3
27.13	42612.8
27.14	41607.3
27.15	40809.8
27.16	41329.9
27.17	42214.1
27.18	40567.1
27.19	42283.4
27.2	42924.9
27.21	42907.5
27.22	42734.2
27.23	42127.4
27.24	39960.3
27.25	41329.9
27.26	41208.6
27.27	42040.7
27.28	41711.3
27.29	41520.6
27.3	41659.3
27.31	41468.6
27.32	41000.5
27.33	40896.5
27.34	41676.6
27.35	42370.1
27.36	40827.2
27.37	41884.7
27.38	40584.4
27.39	40740.5
27.4	41867.3
27.41	42422.1
27.42	40445.8
27.43	40688.5
27.44	40896.5
27.45	40965.8
27.46	40359.1
27.47	39630.9
27.48	41381.9
27.49	39457.6
27.5	39526.9
27.51	40636.5
27.52	40081.7
27.53	41139.2
27.54	40064.4
27.55	39943
27.56	39526.9
27.57	40168.4
27.58	41694
27.59	39717.6
27.6	40515.1
27.61	40913.8
27.62	41607.3
27.63	40445.8
27.64	39717.6
27.65	38452.1
27.66	40012.3
27.67	40255.1
27.68	41121.9
27.69	39526.9
27.7	40775.1
27.71	37689.3
27.72	39526.9
27.73	38781.5
27.74	39145.5
27.75	39024.2
27.76	38348.1
27.77	37845.3
27.78	38712.1
27.79	39735
27.8	39735
27.81	38833.5
27.82	38608.1
27.83	39353.6
27.84	39891
27.85	39908.3
27.86	38885.5
27.87	39249.5
27.88	39041.5
27.89	39093.5
27.9	39232.2
27.91	40393.7
27.92	39960.3
27.93	40861.8
27.94	39613.6
27.95	37134.5
27.96	37550.6
27.97	38330.7
27.98	40116.4
27.99	39943
28	38573.4
28.01	39561.6
28.02	39509.6
28.03	38452.1
28.04	39474.9
28.05	39006.8
28.06	38590.8
28.07	38642.8
28.08	38538.8
28.09	39249.5
28.1	39735
28.11	39457.6
28.12	39440.2
28.13	38590.8
28.14	39058.8
28.15	38400.1
28.16	38278.7
28.17	38885.5
28.18	38036
28.19	39474.9
28.2	36683.8
28.21	37845.3
28.22	37949.3
28.23	37862.6
28.24	38261.4
28.25	37567.9
28.26	37290.5
28.27	38764.1
28.28	38122.7
28.29	37637.3
28.3	38122.7
28.31	37099.8
28.32	36753.1
28.33	36822.4
28.34	38174.7
28.35	38365.4
28.36	37463.9
28.37	37082.5
28.38	37290.5
28.39	37377.2
28.4	36423.7
28.41	35626.2
28.42	38174.7
28.43	37984
28.44	37533.2
28.45	37446.6
28.46	37533.2
28.47	37567.9
28.48	38452.1
28.49	37793.3
28.5	38729.5
28.51	37047.8
28.52	36978.5
28.53	36493.1
28.54	36822.4
28.55	37446.6
28.56	36545.1
28.57	37307.9
28.58	37533.2
28.59	36406.4
28.6	37914.6
28.61	37411.9
28.62	37255.9
28.63	37446.6
28.64	36267.7
28.65	37377.2
28.66	38434.7
28.67	38573.4
28.68	37706.6
28.69	36302.4
28.7	37047.8
28.71	36510.4
28.72	37134.5
28.73	36510.4
28.74	35816.9
28.75	37325.2
28.76	36371.7
28.77	36822.4
28.78	36822.4
28.79	36978.5
28.8	36545.1
28.81	35921
28.82	37810.6
28.83	38001.3
28.84	36753.1
28.85	37619.9
28.86	38226.7
28.87	37134.5
28.88	36787.8
28.89	36527.7
28.9	36389
28.91	36562.4
28.92	35782.3
28.93	36371.7
28.94	35764.9
28.95	36423.7
28.96	36077
28.97	36718.4
28.98	36926.5
28.99	37186.5
29	36007.6
29.01	36753.1
29.02	35591.6
29.03	34846.1
29.04	37013.2
29.05	36874.5
29.06	36181
29.07	35955.6
29.08	35886.3
29.09	35175.5
29.1	35140.8
29.11	35227.5
29.12	35660.9
29.13	36857.1
29.14	35210.2
29.15	35522.2
29.16	36319.7
29.17	34898.1
29.18	36250.4
29.19	35470.2
29.2	34447.4
29.21	35955.6
29.22	35903.6
29.23	34828.8
29.24	35938.3
29.25	35504.9
29.26	35314.2
29.27	35331.5
29.28	35452.9
29.29	34932.8
29.3	35435.5
29.31	35903.6
29.32	35764.9
29.33	36198.3
29.34	35556.9
29.35	35210.2
29.36	34724.8
29.37	35036.8
29.38	35522.2
29.39	35574.2
29.4	35660.9
29.41	35140.8
29.42	35574.2
29.43	36250.4
29.44	34638.1
29.45	35660.9
29.46	34638.1
29.47	34932.8
29.48	34083.3
29.49	34100.6
29.5	35782.3
29.51	33129.8
29.52	34568.7
29.53	35556.9
29.54	34967.5
29.55	36267.7
29.56	34950.1
29.57	35331.5
29.58	35036.8
29.59	34846.1
29.6	34707.4
29.61	34135.3
29.62	32973.8
29.63	33459.2
29.64	34759.4
29.65	33389.9
29.66	34395.4
29.67	33909.9
29.68	34118
29.69	34152.6
29.7	33233.8
29.71	33736.6
29.72	35764.9
29.73	34551.4
29.74	34776.8
29.75	34655.4
29.76	33857.9
29.77	33719.2
29.78	36059.7
29.79	34794.1
29.8	34499.4
29.81	35418.2
29.82	33389.9
29.83	34187.3
29.84	34170
29.85	33667.2
29.86	34464.7
29.87	34430
29.88	34724.8
29.89	34672.7
29.9	34326
29.91	33961.9
29.92	34672.7
29.93	33823.3
29.94	34516.7
29.95	34464.7
29.96	34256.7
29.97	34118
29.98	33424.5
29.99	34447.4
30	33823.3
30.01	33632.6
30.02	34274
30.03	33944.6
30.04	33961.9
30.05	33511.2
30.06	33961.9
30.07	33407.2
30.08	33615.2
30.09	33788.6
30.1	34118
30.11	33649.9
30.12	32887.1
30.13	32817.8
30.14	33407.2
30.15	32592.4
30.16	33129.8
30.17	33944.6
30.18	33095.1
30.19	34378
30.2	33233.8
30.21	33580.6
30.22	34222
30.23	32124.3
30.24	33407.2
30.25	33372.5
30.26	33077.8
30.27	33095.1
30.28	32176.3
30.29	33268.5
30.3	33459.2
30.31	34984.8
30.32	32679.1
30.33	32783.1
30.34	33459.2
30.35	33615.2
30.36	33164.5
30.37	33753.9
30.38	34274
30.39	32176.3
30.4	34551.4
30.41	32540.4
30.42	34014
30.43	32991.1
30.44	32939.1
30.45	33112.5
30.46	32887.1
30.47	32471
30.48	32159
30.49	33025.8
30.5	33580.6
30.51	32800.4
30.52	31465.5
30.53	31569.5
30.54	32037.6
30.55	33060.5
30.56	31725.6
30.57	32471
30.58	32505.7
30.59	33233.8
30.6	32401.7
30.61	33857.9
30.62	32973.8
30.63	32089.6
30.64	32159
30.65	32939.1
30.66	32627
30.67	32523
30.68	32887.1
30.69	32159
30.7	33251.2
30.71	33129.8
30.72	32436.3
30.73	33216.5
30.74	30720
30.75	31673.5
30.76	32471
30.77	33060.5
30.78	33632.6
30.79	32748.4
30.8	34118
30.81	32748.4
30.82	33285.8
30.83	33407.2
30.84	33060.5
30.85	33528.5
30.86	31292.1
30.87	32002.9
30.88	31084.1
30.89	32436.3
30.9	32315
30.91	32332.3
30.92	31396.2
30.93	31985.6
30.94	30512
30.95	31933.6
30.96	32263
30.97	30962.8
30.98	32713.7
30.99	31257.5
31	31378.8
31.01	31933.6
31.02	32037.6
31.03	32124.3
31.04	32384.3
31.05	32020.3
31.06	31101.4
31.07	32523
31.08	33112.5
31.09	31274.8
31.1	30841.4
31.11	31708.2
31.12	31430.8
31.13	31517.5
31.14	30893.4
31.15	31690.9
31.16	33580.6
31.17	33060.5
31.18	31812.2
31.19	32436.3
31.2	31309.5
31.21	31465.5
31.22	30460
31.23	32609.7
31.24	31968.3
31.25	31621.5
31.26	31482.8
31.27	31812.2
31.28	31673.5
31.29	31309.5
31.3	31188.1
31.31	32054.9
31.32	31170.8
31.33	30841.4
31.34	31188.1
31.35	31708.2
31.36	31084.1
31.37	30772.1
31.38	31465.5
31.39	30529.3
31.4	30425.3
31.41	30876.1
31.42	31222.8
31.43	31084.1
31.44	30304
31.45	31552.2
31.46	30997.4
31.47	31794.9
31.48	30529.3
31.49	30945.4
31.5	31222.8
31.51	31829.6
31.52	31084.1
31.53	31014.8
31.54	30720
31.55	32263
31.56	31638.9
31.57	32523
31.58	31413.5
31.59	31777.6
31.6	30425.3
31.61	30945.4
31.62	30494.7
31.63	31222.8
31.64	30962.8
31.65	30893.4
31.66	31118.8
31.67	29870.6
31.68	31517.5
31.69	32453.7
31.7	30147.9
31.71	31864.3
31.72	30980.1
31.73	30650.7
31.74	32176.3
31.75	31153.5
31.76	30373.3
31.77	30824.1
31.78	29697.2
31.79	29731.9
31.8	30962.8
31.81	30876.1
31.82	31222.8
31.83	31621.5
31.84	31517.5
31.85	29662.5
31.86	31257.5
31.87	29645.2
31.88	30217.3
31.89	30095.9
31.9	30200
31.91	29437.2
31.92	29662.5
31.93	30200
31.94	30928.1
31.95	30200
31.96	30182.6
31.97	30824.1
31.98	29298.5
31.99	30043.9
32	30147.9
32.01	29957.2
32.02	30702.7
32.03	30633.4
32.04	30321.3
32.05	29731.9
32.06	31153.5
32.07	30598.7
32.08	29506.5
32.09	29107.8
32.1	30234.6
32.11	30928.1
32.12	30408
32.13	31292.1
32.14	31032.1
32.15	30286.6
32.16	29367.8
32.17	30425.3
32.18	29974.6
32.19	29870.6
32.2	30304
32.21	29575.8
32.22	29541.2
32.23	29662.5
32.24	30147.9
32.25	29766.5
32.26	29714.5
32.27	29298.5
32.28	29818.6
32.29	29315.8
32.3	29887.9
32.31	29870.6
32.32	29749.2
32.33	29523.8
32.34	30200
32.35	30200
32.36	30390.7
32.37	30234.6
32.38	29125.1
32.39	29246.5
32.4	29697.2
32.41	30130.6
32.42	28951.7
32.43	28691.7
32.44	30130.6
32.45	29801.2
32.46	27651.5
32.47	29038.4
32.48	29870.6
32.49	30564
32.5	29298.5
32.51	29506.5
32.52	30269.3
32.53	29489.2
32.54	30581.4
32.55	29801.2
32.56	29367.8
32.57	30668
32.58	28882.4
32.59	30772.1
32.6	28882.4
32.61	28882.4
32.62	28605
32.63	29506.5
32.64	28986.4
32.65	29107.8
32.66	29471.8
32.67	29437.2
32.68	30304
32.69	27738.2
32.7	28223.6
32.71	28986.4
32.72	29558.5
32.73	28778.4
32.74	29298.5
32.75	29281.1
32.76	30494.7
32.77	29350.5
32.78	29905.2
32.79	29021.1
32.8	30147.9
32.81	28743.7
32.82	28275.6
32.83	28899.7
32.84	28899.7
32.85	28553
32.86	29627.9
32.87	29211.8
32.88	28691.7
32.89	28501
32.9	28726.4
32.91	28310.3
32.92	27928.9
32.93	28570.3
32.94	29003.7
32.95	29298.5
32.96	29749.2
32.97	29610.5
32.98	29073.1
32.99	29714.5
33	29645.2
33.01	29506.5
33.02	29454.5
33.03	29402.5
33.04	28830.4
33.05	28813
33.06	28188.9
33.07	28795.7
33.08	28761
33.09	27720.9
33.1	28310.3
33.11	28397
33.12	27252.8
33.13	27114.1
33.14	28795.7
33.15	29090.4
33.16	29194.4
33.17	29159.8
33.18	27946.2
33.19	29471.8
33.2	29246.5
33.21	29298.5
33.22	29315.8
33.23	29402.5
33.24	28813
33.25	28969.1
33.26	28345
33.27	28293
33.28	30165.3
33.29	28258.3
33.3	27824.9
33.31	29506.5
33.32	27998.2
33.33	28206.3
33.34	28726.4
33.35	28813
33.36	28674.4
33.37	29315.8
33.38	29419.8
33.39	28483.7
33.4	27183.4
33.41	29263.8
33.42	28674.4
33.43	28899.7
33.44	27512.8
33.45	29107.8
33.46	26715.3
33.47	28084.9
33.48	28345
33.49	28501
33.5	27842.2
33.51	28709
33.52	27218.1
33.53	26854
33.54	28587.7
33.55	27426.1
33.56	28084.9
33.57	26923.4
33.58	29194.4
33.59	28119.6
33.6	28223.6
33.61	27166.1
33.62	27582.2
33.63	26698
33.64	27408.8
33.65	28709
33.66	27356.8
33.67	27322.1
33.68	28778.4
33.69	27010.1
33.7	26628.7
33.71	27079.4
33.72	28154.3
33.73	28813
33.74	28345
33.75	28605
33.76	28917.1
33.77	27530.2
33.78	27842.2
33.79	29073.1
33.8	28397
33.81	27980.9
33.82	27755.5
33.83	27200.8
33.84	26871.4
33.85	28171.6
33.86	29055.8
33.87	28293
33.88	27911.6
33.89	28397
33.9	29107.8
33.91	27114.1
33.92	27235.4
33.93	27894.2
33.94	27564.8
33.95	27183.4
33.96	28449
33.97	28431.6
33.98	28136.9
33.99	27218.1
34	27339.5
34.01	27547.5
34.02	26299.3
34.03	26403.3
34.04	27894.2
34.05	27980.9
34.06	27426.1
34.07	26958.1
34.08	27408.8
34.09	28657
34.1	27582.2
34.11	27010.1
34.12	26958.1
34.13	26091.2
34.14	27304.8
34.15	27530.2
34.16	26229.9
34.17	28050.2
34.18	27443.5
34.19	26264.6
34.2	26680.7
34.21	28726.4
34.22	27443.5
34.23	28605
34.24	27322.1
34.25	27686.2
34.26	27443.5
34.27	28015.6
34.28	27894.2
34.29	27270.1
34.3	27391.5
34.31	27772.9
34.32	27720.9
34.33	27218.1
34.34	27287.4
34.35	28136.9
34.36	27634.2
34.37	27148.8
34.38	27842.2
34.39	26316.6
34.4	27027.4
34.41	27287.4
34.42	26594
34.43	27807.5
34.44	27720.9
34.45	26524.6
34.46	26888.7
34.47	26767.4
34.48	27079.4
34.49	27252.8
34.5	26472.6
34.51	26784.7
34.52	26438
34.53	27634.2
34.54	25519.1
34.55	27062.1
34.56	26906
34.57	26524.6
34.58	26212.6
34.59	27738.2
34.6	26698
34.61	26021.9
34.62	28258.3
34.63	26316.6
34.64	25935.2
34.65	26628.7
34.66	26819.4
34.67	26108.6
34.68	26056.6
34.69	26507.3
34.7	27599.5
34.71	26680.7
34.72	27235.4
34.73	26611.3
34.74	26871.4
34.75	27044.7
34.76	27010.1
34.77	26386
34.78	27131.4
34.79	26368.6
34.8	27408.8
34.81	26247.3
34.82	26628.7
34.83	27426.1
34.84	26333.9
34.85	27356.8
34.86	25415.1
34.87	26542
34.88	27512.8
34.89	26386
34.9	26646
34.91	26229.9
34.92	26524.6
34.93	26247.3
34.94	26472.6
34.95	24981.7
34.96	26732.7
34.97	26732.7
34.98	26420.6
34.99	26663.3
35	26888.7
35.01	25571.1
35.02	27790.2
35.03	26333.9
35.04	25987.2
35.05	26802
35.06	27200.8
35.07	25917.9
35.08	24877.7
35.09	26750
35.1	26386
35.11	26715.3
35.12	27478.1
35.13	26507.3
35.14	26646
35.15	26507.3
35.16	26247.3
35.17	25051.1
35.18	25501.8
35.19	25640.5
35.2	25709.8
35.21	25779.2
35.22	25519.1
35.23	25259.1
35.24	26056.6
35.25	25865.9
35.26	26108.6
35.27	26004.6
35.28	26004.6
35.29	26281.9
35.3	25605.8
35.31	25172.4
35.32	26264.6
35.33	25935.2
35.34	25675.2
35.35	25571.1
35.36	26125.9
35.37	24877.7
35.38	25900.5
35.39	25137.7
35.4	26802
35.41	26420.6
35.42	27096.7
35.43	26021.9
35.44	25831.2
35.45	25865.9
35.46	26004.6
35.47	24929.7
35.48	25796.5
35.49	25224.4
35.5	25293.8
35.51	26143.2
35.52	26247.3
35.53	25813.9
35.54	25917.9
35.55	26472.6
35.56	25380.4
35.57	25744.5
35.58	25675.2
35.59	25501.8
35.6	25900.5
35.61	25831.2
35.62	26143.2
35.63	25536.5
35.64	25224.4
35.65	25709.8
35.66	26542
35.67	25952.5
35.68	25779.2
35.69	26455.3
35.7	26160.6
35.71	25207.1
35.72	25779.2
35.73	25831.2
35.74	25865.9
35.75	26021.9
35.76	26507.3
35.77	25900.5
35.78	24947
35.79	24149.6
35.8	25467.1
35.81	26212.6
35.82	26056.6
35.83	25623.2
35.84	24877.7
35.85	25779.2
35.86	24704.3
35.87	25657.8
35.88	24791
35.89	24999
35.9	24843
35.91	25207.1
35.92	25103.1
35.93	25068.4
35.94	25709.8
35.95	25969.9
35.96	25068.4
35.97	25571.1
35.98	25432.5
35.99	26108.6
36	25536.5
36.01	24236.2
36.02	25640.5
36.03	24600.3
36.04	25120.4
36.05	25276.4
36.06	24947
36.07	24635
36.08	25623.2
36.09	25172.4
36.1	25744.5
36.11	24479
36.12	24270.9
36.13	24600.3
36.14	25328.4
36.15	25865.9
36.16	24773.7
36.17	25033.7
36.18	25883.2
36.19	25207.1
36.2	24409.6
36.21	24166.9
36.22	24773.7
36.23	24773.7
36.24	25449.8
36.25	25311.1
36.26	25692.5
36.27	24513.6
36.28	25085.7
36.29	24825.7
36.3	26958.1
36.31	26368.6
36.32	25519.1
36.33	25103.1
36.34	23958.9
36.35	24253.6
36.36	24600.3
36.37	25259.1
36.38	25692.5
36.39	25363.1
36.4	24756.3
36.41	23785.5
36.42	24461.6
36.43	24149.6
36.44	25241.8
36.45	24322.9
36.46	25345.8
36.47	25085.7
36.48	24340.3
36.49	23664.1
36.5	25137.7
36.51	25224.4
36.52	24236.2
36.53	24669.7
36.54	25276.4
36.55	24565.6
36.56	24513.6
36.57	25033.7
36.58	24548.3
36.59	24357.6
36.6	25657.8
36.61	24496.3
36.62	24999
36.63	24617.6
36.64	24843
36.65	24756.3
36.66	25241.8
36.67	24218.9
36.68	23577.5
36.69	22797.3
36.7	24548.3
36.71	24028.2
36.72	23768.2
36.73	23716.2
36.74	23820.2
36.75	23560.1
36.76	24981.7
36.77	25311.1
36.78	24201.6
36.79	23993.5
36.8	24097.6
36.81	24253.6
36.82	24531
36.83	24357.6
36.84	24236.2
36.85	24513.6
36.86	24426.9
36.87	24149.6
36.88	24097.6
36.89	23924.2
36.9	24409.6
36.91	23924.2
36.92	24773.7
36.93	24357.6
36.94	24166.9
36.95	24426.9
36.96	24340.3
36.97	23473.4
36.98	24305.6
36.99	24825.7
37	24062.9
37.01	24426.9
37.02	24201.6
37.03	24756.3
37.04	23976.2
37.05	24895
37.06	23802.8
37.07	24843
37.08	24184.2
37.09	24149.6
37.1	23369.4
37.11	24409.6
37.12	23421.4
37.13	24132.2
37.14	24340.3
37.15	24114.9
37.16	24773.7
37.17	23924.2
37.18	23664.1
37.19	23594.8
37.2	24201.6
37.21	23473.4
37.22	23716.2
37.23	25432.5
37.24	23889.5
37.25	23924.2
37.26	23820.2
37.27	23577.5
37.28	23924.2
37.29	23664.1
37.3	23802.8
37.31	23924.2
37.32	23386.8
37.33	24201.6
37.34	23958.9
37.35	24565.6
37.36	25311.1
37.37	23629.5
37.38	23109.4
37.39	23854.8
37.4	24218.9
37.41	24236.2
37.42	23508.1
37.43	25033.7
37.44	24045.5
37.45	24739
37.46	23404.1
37.47	22537.3
37.48	22797.3
37.49	23716.2
37.5	22866.7
37.51	23629.5
37.52	24010.9
37.53	23906.9
37.54	24392.3
37.55	23126.7
37.56	24132.2
37.57	23542.8
37.58	23612.1
37.59	22624
37.6	24149.6
37.61	24132.2
37.62	23785.5
37.63	23490.8
37.64	24062.9
37.65	23386.8
37.66	22658.6
37.67	23542.8
37.68	22589.3
37.69	23924.2
37.7	23698.8
37.71	23785.5
37.72	23542.8
37.73	23438.8
37.74	24392.3
37.75	22797.3
37.76	22710.6
37.77	22589.3
37.78	24028.2
37.79	24218.9
37.8	22450.6
37.81	23473.4
37.82	22901.3
37.83	23698.8
37.84	23577.5
37.85	22901.3
37.86	23525.5
37.87	22901.3
37.88	23248.1
37.89	23612.1
37.9	23993.5
37.91	23109.4
37.92	21323.7
37.93	23126.7
37.94	23144.1
37.95	23768.2
37.96	23334.8
37.97	23906.9
37.98	23404.1
37.99	23057.4
38	22918.7
38.01	23040
38.02	23924.2
38.03	23022.7
38.04	22433.3
38.05	22693.3
38.06	23438.8
38.07	23733.5
38.08	24357.6
38.09	23248.1
38.1	23282.7
38.11	23837.5
38.12	22485.3
38.13	23594.8
38.14	23594.8
38.15	22450.6
38.16	23057.4
38.17	23317.4
38.18	23144.1
38.19	22710.6
38.2	23542.8
38.21	23456.1
38.22	22814.7
38.23	22849.3
38.24	23629.5
38.25	23265.4
38.26	23698.8
38.27	23733.5
38.28	23456.1
38.29	23057.4
38.3	22728
38.31	22918.7
38.32	23577.5
38.33	23438.8
38.34	23161.4
38.35	23334.8
38.36	23334.8
38.37	23508.1
38.38	22606.6
38.39	22589.3
38.4	22780
38.41	23820.2
38.42	23872.2
38.43	23109.4
38.44	23404.1
38.45	23577.5
38.46	23161.4
38.47	22381.3
38.48	21947.8
38.49	22415.9
38.5	22537.3
38.51	23941.5
38.52	22728
38.53	23178.7
38.54	22589.3
38.55	23074.7
38.56	23594.8
38.57	23681.5
38.58	24444.3
38.59	24704.3
38.6	23213.4
38.61	22589.3
38.62	22953.4
38.63	24565.6
38.64	23594.8
38.65	23161.4
38.66	23733.5
38.67	23716.2
38.68	22849.3
38.69	22398.6
38.7	22658.6
38.71	23872.2
38.72	23126.7
38.73	24062.9
38.74	22624
38.75	23265.4
38.76	23976.2
38.77	23490.8
38.78	22554.6
38.79	22901.3
38.8	22554.6
38.81	22103.9
38.82	23126.7
38.83	24270.9
38.84	22728
38.85	22970.7
38.86	22450.6
38.87	22415.9
38.88	23421.4
38.89	22069.2
38.9	21861.2
38.91	22936
38.92	22814.7
38.93	22103.9
38.94	23490.8
38.95	23733.5
38.96	22329.2
38.97	22780
38.98	23577.5
38.99	22953.4
39	23178.7
39.01	22780
39.02	22572
39.03	22329.2
39.04	23490.8
39.05	22433.3
39.06	22190.6
39.07	21375.7
39.08	22173.2
39.09	21566.4
39.1	21930.5
39.11	24270.9
39.12	22086.5
39.13	21774.5
39.14	23144.1
39.15	22658.6
39.16	21965.2
39.17	22901.3
39.18	22953.4
39.19	22676
39.2	22329.2
39.21	22051.9
39.22	22624
39.23	22953.4
39.24	22762.7
39.25	22832
39.26	22693.3
39.27	22554.6
39.28	22485.3
39.29	22173.2
39.3	22624
39.31	22277.2
39.32	21982.5
39.33	22138.5
39.34	23092
39.35	22173.2
39.36	22069.2
39.37	22294.6
39.38	22311.9
39.39	22901.3
39.4	21739.8
39.41	22086.5
39.42	23126.7
39.43	22519.9
39.44	22121.2
39.45	22277.2
39.46	21219.7
39.47	22207.9
39.48	21843.8
39.49	22745.3
39.5	21947.8
39.51	21843.8
39.52	21254.4
39.53	21150.4
39.54	22780
39.55	22294.6
39.56	22017.2
39.57	22190.6
39.58	21687.8
39.59	22849.3
39.6	22676
39.61	22537.3
39.62	22450.6
39.63	22086.5
39.64	22710.6
39.65	21722.5
39.66	21618.5
39.67	21479.8
39.68	22519.9
39.69	23525.5
39.7	22190.6
39.71	21774.5
39.72	21965.2
39.73	21791.8
39.74	21219.7
39.75	22103.9
39.76	22814.7
39.77	21670.5
39.78	22572
39.79	22381.3
39.8	21965.2
39.81	22381.3
39.82	22502.6
39.83	22069.2
39.84	22103.9
39.85	21913.2
39.86	21861.2
39.87	21323.7
39.88	22450.6
39.89	20907.7
39.9	22710.6
39.91	22155.9
39.92	22467.9
39.93	22017.2
39.94	21982.5
39.95	22277.2
39.96	21653.1
39.97	20977
39.98	21358.4
39.99	21965.2
40	22069.2
40.01	22051.9
40.02	22207.9
40.03	23369.4
40.04	22502.6
40.05	22398.6
40.06	22884
40.07	22502.6
40.08	22173.2
40.09	21271.7
40.1	21687.8
40.11	21375.7
40.12	21514.4
40.13	22519.9
40.14	21722.5
40.15	21982.5
40.16	22069.2
40.17	21843.8
40.18	21947.8
40.19	21861.2
40.2	21791.8
40.21	20422.2
40.22	21999.9
40.23	21479.8
40.24	22155.9
40.25	22728
40.26	21046.4
40.27	22225.2
40.28	21358.4
40.29	22017.2
40.3	21081
40.31	21722.5
40.32	21289.1
40.33	22277.2
40.34	22797.3
40.35	22294.6
40.36	22242.6
40.37	22017.2
40.38	21982.5
40.39	21913.2
40.4	22207.9
40.41	21375.7
40.42	21861.2
40.43	21913.2
40.44	21566.4
40.45	22676
40.46	23040
40.47	21913.2
40.48	21479.8
40.49	21323.7
40.5	21670.5
40.51	21341.1
40.52	22294.6
40.53	20890.3
40.54	21306.4
40.55	21583.8
40.56	21861.2
40.57	22086.5
40.58	21791.8
40.59	22190.6
40.6	21774.5
40.61	21913.2
40.62	22103.9
40.63	22086.5
40.64	21497.1
40.65	22277.2
40.66	21341.1
40.67	21774.5
40.68	21254.4
40.69	20266.2
40.7	22537.3
40.71	21757.1
40.72	22259.9
40.73	21791.8
40.74	21722.5
40.75	22103.9
40.76	21687.8
40.77	22294.6
40.78	20682.3
40.79	21115.7
40.8	20890.3
40.81	22797.3
40.82	22450.6
40.83	22190.6
40.84	22346.6
40.85	21549.1
40.86	22103.9
40.87	21323.7
40.88	22173.2
40.89	22381.3
40.9	20699.6
40.91	21410.4
40.92	21670.5
40.93	21739.8
40.94	21618.5
40.95	22051.9
40.96	22745.3
40.97	22415.9
40.98	22519.9
40.99	21098.4
41	22069.2
41.01	20994.3
41.02	22259.9
41.03	22311.9
41.04	21427.8
41.05	20994.3
41.06	21965.2
41.07	21566.4
41.08	21809.2
41.09	22207.9
41.1	22173.2
41.11	22051.9
41.12	20942.3
41.13	21809.2
41.14	22138.5
41.15	22086.5
41.16	21046.4
41.17	21011.7
41.18	20699.6
41.19	21722.5
41.2	22676
41.21	21063.7
41.22	22277.2
41.23	21254.4
41.24	20942.3
41.25	22554.6
41.26	22173.2
41.27	21653.1
41.28	21861.2
41.29	21531.8
41.3	21583.8
41.31	21774.5
41.32	22034.5
41.33	21583.8
41.34	21895.8
41.35	22225.2
41.36	21566.4
41.37	22259.9
41.38	21670.5
41.39	22572
41.4	22207.9
41.41	21341.1
41.42	22676
41.43	21757.1
41.44	22450.6
41.45	21583.8
41.46	22277.2
41.47	23040
41.48	21497.1
41.49	22086.5
41.5	22849.3
41.51	21497.1
41.52	23230.7
41.53	22676
41.54	22225.2
41.55	21878.5
41.56	22901.3
41.57	22849.3
41.58	22953.4
41.59	23144.1
41.6	20352.9
41.61	22554.6
41.62	22207.9
41.63	21878.5
41.64	21861.2
41.65	22502.6
41.66	24097.6
41.67	22502.6
41.68	22155.9
41.69	22381.3
41.7	22797.3
41.71	21843.8
41.72	21219.7
41.73	21878.5
41.74	21947.8
41.75	21531.8
41.76	22624
41.77	22832
41.78	23022.7
41.79	22537.3
41.8	22641.3
41.81	22970.7
41.82	22537.3
41.83	22086.5
41.84	22398.6
41.85	21687.8
41.86	21999.9
41.87	21913.2
41.88	22866.7
41.89	22329.2
41.9	22277.2
41.91	22346.6
41.92	22658.6
41.93	22710.6
41.94	21566.4
41.95	22311.9
41.96	22519.9
41.97	21739.8
41.98	21861.2
41.99	21237.1
42	21930.5
42.01	23282.7
42.02	21566.4
42.03	21479.8
42.04	21843.8
42.05	22641.3
42.06	22069.2
42.07	21306.4
42.08	22294.6
42.09	22572
42.1	22519.9
42.11	20855.7
42.12	22259.9
42.13	21965.2
42.14	22277.2
42.15	22069.2
42.16	21635.8
42.17	22502.6
42.18	21757.1
42.19	22155.9
42.2	21687.8
42.21	22225.2
42.22	22017.2
42.23	21653.1
42.24	22294.6
42.25	21826.5
42.26	22069.2
42.27	22121.2
42.28	21809.2
42.29	21445.1
42.3	21029
42.31	21237.1
42.32	21462.4
42.33	22311.9
42.34	22051.9
42.35	22242.6
42.36	21618.5
42.37	21635.8
42.38	21081
42.39	21826.5
42.4	21462.4
42.41	20717
42.42	21531.8
42.43	22537.3
42.44	21601.1
42.45	20647.6
42.46	20734.3
42.47	21167.7
42.48	21358.4
42.49	21739.8
42.5	21618.5
42.51	22554.6
42.52	22277.2
42.53	20977
42.54	21150.4
42.55	21774.5
42.56	21479.8
42.57	22155.9
42.58	21687.8
42.59	22207.9
42.6	20838.3
42.61	20786.3
42.62	20370.2
42.63	21167.7
42.64	20873
42.65	20526.3
42.66	20699.6
42.67	20630.3
42.68	21237.1
42.69	20977
42.7	20370.2
42.71	21029
42.72	21081
42.73	21063.7
42.74	20526.3
42.75	21323.7
42.76	21531.8
42.77	20162.2
42.78	20404.9
42.79	21705.1
42.8	19884.8
42.81	21254.4
42.82	21375.7
42.83	21323.7
42.84	21306.4
42.85	20560.9
42.86	20665
42.87	20907.7
42.88	21427.8
42.89	21687.8
42.9	20214.2
42.91	20231.5
42.92	20387.6
42.93	19988.8
42.94	19226
42.95	20092.9
42.96	21133
42.97	21046.4
42.98	20769
42.99	20231.5
43	19520.8
43.01	20162.2
43.02	21375.7
43.03	20838.3
43.04	20665
43.05	20214.2
43.06	20214.2
43.07	20873
43.08	21306.4
43.09	20352.9
43.1	21011.7
43.11	21133
43.12	21358.4
43.13	20144.9
43.14	20665
43.15	19815.5
43.16	20734.3
43.17	20404.9
43.18	20612.9
43.19	20023.5
43.2	20335.6
43.21	20925
43.22	20838.3
43.23	19988.8
43.24	20543.6
43.25	21098.4
43.26	20248.9
43.27	20162.2
43.28	20699.6
43.29	21306.4
43.3	20682.3
43.31	20717
43.32	21254.4
43.33	21566.4
43.34	19988.8
43.35	20560.9
43.36	19590.1
43.37	20335.6
43.38	20006.2
43.39	19382.1
43.4	19936.8
43.41	21271.7
43.42	20821
43.43	20665
43.44	20196.9
43.45	20422.2
43.46	20855.7
43.47	20266.2
43.48	19746.1
43.49	19919.5
43.5	21167.7
43.51	21029
43.52	19728.8
43.53	20023.5
43.54	20491.6
43.55	21323.7
43.56	19902.2
43.57	20387.6
43.58	21219.7
43.59	20994.3
43.6	20751.6
43.61	21427.8
43.62	20162.2
43.63	20335.6
43.64	20283.6
43.65	19347.4
43.66	20352.9
43.67	19642.1
43.68	20335.6
43.69	20248.9
43.7	20578.3
43.71	20474.3
43.72	20283.6
43.73	20335.6
43.74	20318.2
43.75	19815.5
43.76	19711.5
43.77	19850.1
43.78	19780.8
43.79	20300.9
43.8	19295.4
43.81	20474.3
43.82	20127.5
43.83	19867.5
43.84	19676.8
43.85	20890.3
43.86	20491.6
43.87	19815.5
43.88	20612.9
43.89	20456.9
43.9	19590.1
43.91	20058.2
43.92	19763.5
43.93	19763.5
43.94	20682.3
43.95	19642.1
43.96	19503.4
43.97	20040.8
43.98	20543.6
43.99	21133
44	20682.3
44.01	19659.4
44.02	20439.6
44.03	20786.3
44.04	20231.5
44.05	20890.3
44.06	19659.4
44.07	19694.1
44.08	20318.2
44.09	19590.1
44.1	19988.8
44.11	19902.2
44.12	20370.2
44.13	19954.2
44.14	19451.4
44.15	19399.4
44.16	19451.4
44.17	19936.8
44.18	20023.5
44.19	19694.1
44.2	19624.8
44.21	19572.8
44.22	19971.5
44.23	19971.5
44.24	19884.8
44.25	20717
44.26	20543.6
44.27	20092.9
44.28	19226
44.29	20110.2
44.3	19763.5
44.31	19503.4
44.32	19070
44.33	20560.9
44.34	19746.1
44.35	19746.1
44.36	20370.2
44.37	20387.6
44.38	20370.2
44.39	20439.6
44.4	19971.5
44.41	19867.5
44.42	19052.7
44.43	19520.8
44.44	20040.8
44.45	20144.9
44.46	20300.9
44.47	20370.2
44.48	19139.4
44.49	19260.7
44.5	19555.4
44.51	20925
44.52	20595.6
44.53	21375.7
44.54	19434.1
44.55	20491.6
44.56	19451.4
44.57	18862
44.58	20300.9
44.59	19815.5
44.6	19936.8
44.61	20387.6
44.62	18931.3
44.63	19468.7
44.64	19087.3
44.65	19364.7
44.66	20300.9
44.67	19954.2
44.68	19728.8
44.69	19832.8
44.7	19486.1
44.71	20058.2
44.72	19971.5
44.73	20630.3
44.74	19468.7
44.75	20092.9
44.76	18931.3
44.77	20612.9
44.78	20439.6
44.79	19902.2
44.8	19295.4
44.81	19676.8
44.82	19382.1
44.83	19607.4
44.84	18515.2
44.85	19902.2
44.86	19954.2
44.87	19156.7
44.88	19018
44.89	20474.3
44.9	19832.8
44.91	18983.3
44.92	18671.3
44.93	20144.9
44.94	19902.2
44.95	19347.4
44.96	18549.9
44.97	19919.5
44.98	19884.8
44.99	19538.1
45	19208.7
45.01	19884.8
45.02	18723.3
45.03	19520.8
45.04	19642.1
45.05	20092.9
45.06	20352.9
45.07	20006.2
45.08	19815.5
45.09	20231.5
45.1	19330.1
45.11	19052.7
45.12	19867.5
45.13	18341.9
45.14	19295.4
45.15	19746.1
45.16	19278
45.17	19867.5
45.18	19486.1
45.19	18272.5
45.2	20006.2
45.21	18844.6
45.22	18827.3
45.23	19728.8
45.24	20404.9
45.25	19156.7
45.26	18792.6
45.27	18619.3
45.28	19018
45.29	19226
45.3	18723.3
45.31	20214.2
45.32	18862
45.33	18671.3
45.34	19226
45.35	19486.1
45.36	19780.8
45.37	19416.7
45.38	18636.6
45.39	20006.2
45.4	19746.1
45.41	19139.4
45.42	18445.9
45.43	19399.4
45.44	19226
45.45	18705.9
45.46	18723.3
45.47	19780.8
45.48	19122
45.49	19191.4
45.5	18810
45.51	19156.7
45.52	18966
45.53	18584.6
45.54	18307.2
45.55	20144.9
45.56	18792.6
45.57	18636.6
45.58	18584.6
45.59	19000.7
45.6	18081.8
45.61	18653.9
45.62	18896.6
45.63	19572.8
45.64	19295.4
45.65	19538.1
45.66	20058.2
45.67	20006.2
45.68	18411.2
45.69	18810
45.7	20179.5
45.71	20023.5
45.72	18619.3
45.73	19988.8
45.74	19174
45.75	19278
45.76	19087.3
45.77	19330.1
45.78	18775.3
45.79	17960.5
45.8	18879.3
45.81	19468.7
45.82	18844.6
45.83	18671.3
45.84	18480.6
45.85	18567.3
45.86	19364.7
45.87	18341.9
45.88	19087.3
45.89	18688.6
45.9	19052.7
45.91	18844.6
45.92	18862
45.93	18324.5
45.94	18532.6
45.95	18341.9
45.96	18168.5
45.97	18931.3
45.98	18549.9
45.99	18532.6
46	19347.4
46.01	19104.7
46.02	18497.9
46.03	18723.3
46.04	18758
46.05	17440.4
46.06	19347.4
46.07	18671.3
46.08	19139.4
46.09	18636.6
46.1	18255.2
46.11	18584.6
46.12	18966
46.13	18896.6
46.14	18705.9
46.15	19052.7
46.16	18896.6
46.17	17509.7
46.18	18636.6
46.19	17423.1
46.2	18047.2
46.21	18653.9
46.22	18497.9
46.23	18810
46.24	18966
46.25	18653.9
46.26	18862
46.27	18359.2
46.28	18376.6
46.29	18255.2
46.3	18341.9
46.31	18341.9
46.32	18549.9
46.33	17267
46.34	18185.9
46.35	18844.6
46.36	18393.9
46.37	18931.3
46.38	18844.6
46.39	18497.9
46.4	19052.7
46.41	18376.6
46.42	17457.7
46.43	19468.7
46.44	18116.5
46.45	18393.9
46.46	18237.9
46.47	18827.3
46.48	17769.8
46.49	18567.3
46.5	17821.8
46.51	18393.9
46.52	18289.9
46.53	18272.5
46.54	18081.8
46.55	18099.2
46.56	19087.3
46.57	18047.2
46.58	17821.8
46.59	18948.7
46.6	18584.6
46.61	18411.2
46.62	18359.2
46.63	18688.6
46.64	17613.8
46.65	17475.1
46.66	18099.2
46.67	18220.5
46.68	17544.4
46.69	16989.6
46.7	16729.6
46.71	17180.3
46.72	18047.2
46.73	18203.2
46.74	18203.2
46.75	17683.1
46.76	18740.6
46.77	17925.8
46.78	18619.3
46.79	17735.1
46.8	17891.1
46.81	17960.5
46.82	18549.9
46.83	18341.9
46.84	18601.9
46.85	17839.1
46.86	17769.8
46.87	17111
46.88	18428.6
46.89	17821.8
46.9	18359.2
46.91	18775.3
46.92	18133.8
46.93	17267
46.94	18133.8
46.95	17059
46.96	17873.8
46.97	18341.9
46.98	18532.6
46.99	18445.9
47	17111
47.01	18914
47.02	18688.6
47.03	17561.7
47.04	17735.1
47.05	18393.9
47.06	17163
47.07	18567.3
47.08	17059
47.09	18116.5
47.1	17405.7
47.11	17440.4
47.12	17891.1
47.13	18411.2
47.14	18393.9
47.15	17769.8
47.16	18827.3
47.17	18844.6
47.18	18775.3
47.19	18029.8
47.2	19018
47.21	18289.9
47.22	18688.6
47.23	17423.1
47.24	17891.1
47.25	18341.9
47.26	18012.5
47.27	18515.2
47.28	19434.1
47.29	18758
47.3	18203.2
47.31	18480.6
47.32	18740.6
47.33	18237.9
47.34	18237.9
47.35	18914
47.36	17457.7
47.37	18810
47.38	18619.3
47.39	18844.6
47.4	18445.9
47.41	18428.6
47.42	17423.1
47.43	18532.6
47.44	18688.6
47.45	17839.1
47.46	17457.7
47.47	18341.9
47.48	18723.3
47.49	18931.3
47.5	18671.3
47.51	18133.8
47.52	18810
47.53	19174
47.54	18324.5
47.55	18567.3
47.56	19191.4
47.57	18688.6
47.58	18480.6
47.59	18272.5
47.6	19330.1
47.61	18359.2
47.62	18775.3
47.63	18359.2
47.64	18324.5
47.65	19260.7
47.66	19174
47.67	18324.5
47.68	17232.4
47.69	18775.3
47.7	17856.5
47.71	18168.5
47.72	18133.8
47.73	18463.2
47.74	18428.6
47.75	18705.9
47.76	17943.1
47.77	19000.7
47.78	18289.9
47.79	18185.9
47.8	18549.9
47.81	17648.4
47.82	18671.3
47.83	18151.2
47.84	18463.2
47.85	17111
47.86	18463.2
47.87	18047.2
47.88	18307.2
47.89	17787.1
47.9	17492.4
47.91	18411.2
47.92	17787.1
47.93	18064.5
47.94	18272.5
47.95	18601.9
47.96	17405.7
47.97	19000.7
47.98	19018
47.99	18532.6
48	17735.1
48.01	17353.7
48.02	17943.1
48.03	18497.9
48.04	17856.5
48.05	18862
48.06	18758
48.07	18445.9
48.08	18047.2
48.09	17977.8
48.1	17076.3
48.11	18307.2
48.12	17596.4
48.13	18393.9
48.14	18324.5
48.15	17908.5
48.16	17960.5
48.17	18099.2
48.18	17388.4
48.19	17492.4
48.2	17631.1
48.21	17284.4
48.22	17007
48.23	17943.1
48.24	18307.2
48.25	17925.8
48.26	17475.1
48.27	17197.7
48.28	16937.6
48.29	18116.5
48.3	17457.7
48.31	16885.6
48.32	17665.8
48.33	18376.6
48.34	16798.9
48.35	17093.7
48.36	17457.7
48.37	16729.6
48.38	17232.4
48.39	16798.9
48.4	16851
48.41	16469.6
48.42	16608.2
48.43	16920.3
48.44	17041.7
48.45	16365.5
48.46	16868.3
48.47	16955
48.48	17475.1
48.49	16694.9
48.5	16313.5
48.51	17284.4
48.52	17596.4
48.53	16955
48.54	17596.4
48.55	17197.7
48.56	16504.2
48.57	17111
48.58	16798.9
48.59	16625.6
48.6	16903
48.61	16677.6
48.62	16798.9
48.63	16712.3
48.64	16330.9
48.65	15706.8
48.66	16903
48.67	17007
48.68	16018.8
48.69	17163
48.7	16244.2
48.71	15689.4
48.72	16226.8
48.73	16400.2
48.74	16833.6
48.75	16417.5
48.76	16729.6
48.77	16660.3
48.78	16885.6
48.79	16746.9
48.8	16296.2
48.81	16070.8
48.82	16989.6
48.83	16885.6
48.84	17284.4
48.85	16174.8
48.86	16989.6
48.87	17093.7
48.88	17353.7
48.89	16469.6
48.9	15880.1
48.91	17232.4
48.92	17579.1
48.93	16642.9
48.94	16955
48.95	16521.6
48.96	16348.2
48.97	16694.9
48.98	17267
48.99	16261.5
49	15585.4
49.01	16694.9
49.02	16764.3
49.03	17059
49.04	16417.5
49.05	16868.3
49.06	16972.3
49.07	16538.9
49.08	17856.5
49.09	18411.2
49.1	18289.9
49.11	18636.6
49.12	18671.3
49.13	19780.8
49.14	19659.4
49.15	19676.8
49.16	19902.2
49.17	19936.8
49.18	21549.1
49.19	20734.3
49.2	20717
49.21	20890.3
49.22	21375.7
49.23	21878.5
49.24	21011.7
49.25	20907.7
49.26	21375.7
49.27	22537.3
49.28	21757.1
49.29	21757.1
49.3	21479.8
49.31	22277.2
49.32	22467.9
49.33	21965.2
49.34	22832
49.35	22034.5
49.36	22190.6
49.37	20543.6
49.38	20543.6
49.39	21306.4
49.4	20023.5
49.41	20318.2
49.42	20803.6
49.43	21427.8
49.44	20456.9
49.45	19936.8
49.46	19850.1
49.47	20595.6
49.48	19191.4
49.49	19988.8
49.5	20335.6
49.51	20491.6
49.52	22207.9
49.53	21341.1
49.54	22502.6
49.55	23681.5
49.56	22294.6
49.57	23005.4
49.58	21462.4
49.59	21549.1
49.6	20266.2
49.61	19746.1
49.62	19312.7
49.63	20404.9
49.64	19347.4
49.65	19416.7
49.66	20352.9
49.67	21427.8
49.68	20873
49.69	20179.5
49.7	20387.6
49.71	18567.3
49.72	19018
49.73	18428.6
49.74	18133.8
49.75	18463.2
49.76	17648.4
49.77	17873.8
49.78	18099.2
49.79	18099.2
49.8	18671.3
49.81	18584.6
49.82	18203.2
49.83	17735.1
49.84	18515.2
49.85	18220.5
49.86	18151.2
49.87	17717.8
49.88	17596.4
49.89	18255.2
49.9	17267
49.91	17353.7
49.92	17301.7
49.93	17215
49.94	17111
49.95	17769.8
49.96	17509.7
49.97	17527.1
49.98	17977.8
49.99	17059
50	17527.1
50.01	17301.7
50.02	17492.4
50.03	17423.1
50.04	18185.9
50.05	17631.1
50.06	17111
50.07	17007
50.08	17319
50.09	16556.2
50.1	17041.7
50.11	17544.4
50.12	17579.1
50.13	17388.4
50.14	17665.8
50.15	18133.8
50.16	16868.3
50.17	16625.6
50.18	16434.9
50.19	17249.7
50.2	17076.3
50.21	17492.4
50.22	17145.7
50.23	16712.3
50.24	17284.4
50.25	16226.8
50.26	16868.3
50.27	15966.8
50.28	17319
50.29	16244.2
50.3	16244.2
50.31	16504.2
50.32	16088.2
50.33	16330.9
50.34	16226.8
50.35	15048
50.36	16088.2
50.37	16278.9
50.38	16400.2
50.39	15585.4
50.4	15516.1
50.41	15654.7
50.42	15949.5
50.43	16244.2
50.44	15758.8
50.45	14822.6
50.46	15152
50.47	14978.6
50.48	16417.5
50.49	16417.5
50.5	15169.3
50.51	15412
50.52	14978.6
50.53	15117.3
50.54	15706.8
50.55	15533.4
50.56	15585.4
50.57	15550.7
50.58	15602.7
50.59	15550.7
50.6	15186.7
50.61	15845.4
50.62	15585.4
50.63	15498.7
50.64	15134.7
50.65	14579.9
50.66	15585.4
50.67	15585.4
50.68	16070.8
50.69	15828.1
50.7	15290.7
50.71	15169.3
50.72	14805.3
50.73	15134.7
50.74	14805.3
50.75	15290.7
50.76	16140.2
50.77	16053.5
50.78	14666.6
50.79	15568.1
50.8	15186.7
50.81	15308
50.82	15672.1
50.83	15429.4
50.84	15221.3
50.85	15204
50.86	16122.8
50.87	14562.6
50.88	15793.4
50.89	15620.1
50.9	14735.9
50.91	14701.2
50.92	15984.1
50.93	15776.1
50.94	15620.1
50.95	15238.7
50.96	14909.3
50.97	15030.6
50.98	15273.3
50.99	15082.6
51	14527.9
51.01	15446.7
51.02	15273.3
51.03	15516.1
51.04	15897.5
51.05	15828.1
51.06	15932.1
51.07	15724.1
51.08	16053.5
51.09	15724.1
51.1	15325.4
51.11	15412
51.12	15810.8
51.13	16036.1
51.14	15169.3
51.15	15273.3
51.16	15724.1
51.17	15689.4
51.18	14874.6
51.19	15498.7
51.2	15308
51.21	14718.6
51.22	15048
51.23	15308
51.24	14874.6
51.25	15464
51.26	15238.7
51.27	15862.8
51.28	14389.2
51.29	15030.6
51.3	15325.4
51.31	15394.7
51.32	15152
51.33	14701.2
51.34	15516.1
51.35	15464
51.36	15030.6
51.37	15585.4
51.38	14701.2
51.39	15325.4
51.4	15672.1
51.41	15134.7
51.42	16434.9
51.43	15533.4
51.44	15048
51.45	14527.9
51.46	16140.2
51.47	15273.3
51.48	15013.3
51.49	15308
51.5	14406.5
51.51	14111.8
51.52	14527.9
51.53	15169.3
51.54	15516.1
51.55	14597.2
51.56	15030.6
51.57	15585.4
51.58	15204
51.59	14996
51.6	15394.7
51.61	15516.1
51.62	14891.9
51.63	14961.3
51.64	15290.7
51.65	15464
51.66	15446.7
51.67	15516.1
51.68	15186.7
51.69	14215.8
51.7	14666.6
51.71	14094.5
51.72	15221.3
51.73	14319.8
51.74	15481.4
51.75	14874.6
51.76	15533.4
51.77	14545.2
51.78	14753.3
51.79	15082.6
51.8	13990.5
51.81	14944
51.82	15221.3
51.83	15134.7
51.84	15221.3
51.85	15169.3
51.86	13938.4
51.87	15221.3
51.88	14666.6
51.89	14458.5
51.9	14579.9
51.91	14146.5
51.92	14822.6
51.93	14025.1
51.94	14059.8
51.95	15152
51.96	15100
51.97	15308
51.98	14909.3
51.99	14025.1
52	14250.5
52.01	14527.9
52.02	14822.6
52.03	14857.3
52.04	13886.4
52.05	14874.6
52.06	14839.9
52.07	15065.3
52.08	14649.2
52.09	14718.6
52.1	14649.2
52.11	14857.3
52.12	14839.9
52.13	14441.2
52.14	14146.5
52.15	13591.7
52.16	14267.8
52.17	14683.9
52.18	14267.8
52.19	15030.6
52.2	14701.2
52.21	13713.1
52.22	13938.4
52.23	14666.6
52.24	14666.6
52.25	14354.5
52.26	14458.5
52.27	13661.1
52.28	13574.4
52.29	13591.7
52.3	13817.1
52.31	15152
52.32	15550.7
52.33	13921.1
52.34	13383.7
52.35	14129.1
52.36	14354.5
52.37	13886.4
52.38	13851.8
52.39	13851.8
52.4	13955.8
52.41	14527.9
52.42	14319.8
52.43	14510.5
52.44	13851.8
52.45	13314.3
52.46	13713.1
52.47	13210.3
52.48	13158.3
52.49	14025.1
52.5	13765.1
52.51	14181.2
52.52	13851.8
52.53	13678.4
52.54	14042.5
52.55	13921.1
52.56	13973.1
52.57	14371.9
52.58	14389.2
52.59	13522.4
52.6	13539.7
52.61	13487.7
52.62	13643.7
52.63	14077.1
52.64	12776.9
52.65	13366.3
52.66	14059.8
52.67	14649.2
52.68	13834.4
52.69	13782.4
52.7	13955.8
52.71	13366.3
52.72	14944
52.73	14250.5
52.74	12863.6
52.75	13713.1
52.76	13973.1
52.77	14042.5
52.78	14025.1
52.79	13071.6
52.8	13851.8
52.81	14458.5
52.82	13574.4
52.83	13747.7
52.84	14233.2
52.85	14042.5
52.86	12898.3
52.87	13678.4
52.88	14302.5
52.89	13539.7
52.9	13054.3
52.91	13487.7
52.92	13331.7
52.93	14545.2
52.94	13782.4
52.95	13643.7
52.96	13695.7
52.97	13401
52.98	14111.8
52.99	13245
53	12984.9
53.01	12932.9
53.02	13002.3
53.03	12950.3
53.04	13210.3
53.05	12880.9
53.06	13626.4
53.07	12759.6
53.08	12551.5
53.09	13522.4
53.1	13522.4
53.11	13938.4
53.12	13695.7
53.13	13089
53.14	13453
53.15	13019.6
53.16	13331.7
53.17	13071.6
53.18	13661.1
53.19	13418.4
53.2	13505
53.21	12967.6
53.22	12915.6
53.23	13383.7
53.24	12551.5
53.25	12672.9
53.26	12534.2
53.27	12690.2
53.28	12932.9
53.29	13019.6
53.3	12794.2
53.31	13227.7
53.32	13487.7
53.33	13314.3
53.34	12464.9
53.35	12586.2
53.36	13366.3
53.37	13418.4
53.38	13643.7
53.39	12742.2
53.4	13193
53.41	12967.6
53.42	12638.2
53.43	12794.2
53.44	13574.4
53.45	13401
53.46	12811.6
53.47	13175.6
53.48	13141
53.49	12447.5
53.5	12863.6
53.51	12967.6
53.52	13297
53.53	13557
53.54	13349
53.55	13019.6
53.56	13661.1
53.57	13297
53.58	12724.9
53.59	12707.6
53.6	13245
53.61	12794.2
53.62	12118.1
53.63	13141
53.64	13175.6
53.65	12759.6
53.66	12152.8
53.67	12308.8
53.68	12898.3
53.69	12759.6
53.7	12603.5
53.71	13019.6
53.72	13071.6
53.73	12846.3
53.74	13106.3
53.75	12603.5
53.76	13019.6
53.77	12846.3
53.78	13141
53.79	13141
53.8	13505
53.81	13453
53.82	13002.3
53.83	11667.4
53.84	12672.9
53.85	13227.7
53.86	12395.5
53.87	12603.5
53.88	12620.9
53.89	12551.5
53.9	13210.3
53.91	12880.9
53.92	12170.1
53.93	12170.1
53.94	11286
53.95	12412.8
53.96	12360.8
53.97	12967.6
53.98	12638.2
53.99	12482.2
54	13210.3
54.01	12863.6
54.02	12326.2
54.03	11962.1
54.04	12759.6
54.05	11910.1
54.06	12534.2
54.07	12482.2
54.08	11788.7
54.09	12170.1
54.1	12066.1
54.11	12118.1
54.12	12256.8
54.13	12707.6
54.14	13141
54.15	12239.5
54.16	12152.8
54.17	12620.9
54.18	12603.5
54.19	13123.6
54.2	12031.4
54.21	11806.1
54.22	12447.5
54.23	12118.1
54.24	12603.5
54.25	13383.7
54.26	12308.8
54.27	12846.3
54.28	12083.5
54.29	12204.8
54.3	12326.2
54.31	12343.5
54.32	12586.2
54.33	12534.2
54.34	12100.8
54.35	12135.5
54.36	12048.8
54.37	12707.6
54.38	12690.2
54.39	13314.3
54.4	11944.8
54.41	13002.3
54.42	12499.5
54.43	11771.4
54.44	12187.5
54.45	12118.1
54.46	12239.5
54.47	12014.1
54.48	12378.2
54.49	12308.8
54.5	12152.8
54.51	12083.5
54.52	11823.4
54.53	12568.9
54.54	11944.8
54.55	11372.7
54.56	11962.1
54.57	12742.2
54.58	12620.9
54.59	11650
54.6	12412.8
54.61	11702
54.62	11580.7
54.63	12638.2
54.64	12672.9
54.65	12898.3
54.66	12343.5
54.67	12239.5
54.68	12551.5
54.69	12863.6
54.7	11632.7
54.71	12031.4
54.72	12603.5
54.73	12412.8
54.74	11840.7
54.75	12326.2
54.76	11736.7
54.77	11251.3
54.78	11788.7
54.79	11754.1
54.8	12031.4
54.81	12222.1
54.82	12482.2
54.83	11823.4
54.84	12170.1
54.85	11077.9
54.86	11546
54.87	11910.1
54.88	12222.1
54.89	11892.8
54.9	11927.4
54.91	11996.8
54.92	12066.1
54.93	12430.2
54.94	11944.8
54.95	11962.1
54.96	11650
54.97	11892.8
54.98	12204.8
54.99	12412.8
55	12031.4
55.01	12031.4
55.02	11528.7
55.03	12222.1
55.04	12932.9
55.05	12256.8
55.06	11823.4
55.07	12707.6
55.08	12308.8
55.09	12308.8
55.1	12031.4
55.11	11736.7
55.12	11719.4
55.13	12846.3
55.14	12222.1
55.15	11875.4
55.16	12187.5
55.17	11996.8
55.18	12308.8
55.19	11598
55.2	12204.8
55.21	11546
55.22	10921.9
55.23	11771.4
55.24	11476.7
55.25	11442
55.26	11615.4
55.27	10921.9
55.28	11650
55.29	10904.6
55.3	12152.8
55.31	11858.1
55.32	12274.2
55.33	11650
55.34	12204.8
55.35	11840.7
55.36	11702
55.37	10540.5
55.38	11147.3
55.39	11372.7
55.4	11598
55.41	12152.8
55.42	12135.5
55.43	11338
55.44	10939.3
55.45	11164.6
55.46	12204.8
55.47	11823.4
55.48	11632.7
55.49	12014.1
55.5	12014.1
55.51	10956.6
55.52	12031.4
55.53	11320.7
55.54	10921.9
55.55	12412.8
55.56	11338
55.57	11892.8
55.58	11320.7
55.59	11702
55.6	11528.7
55.61	11164.6
55.62	11979.4
55.63	11025.9
55.64	10505.8
55.65	11025.9
55.66	11528.7
55.67	11546
55.68	11008.6
55.69	11459.3
55.7	11442
55.71	11286
55.72	11182
55.73	11095.3
55.74	11459.3
55.75	11667.4
55.76	11736.7
55.77	11979.4
55.78	11095.3
55.79	11390
55.8	11702
55.81	11754.1
55.82	11736.7
55.83	11546
55.84	11216.6
55.85	10869.9
55.86	10713.9
55.87	10852.6
55.88	11372.7
55.89	11164.6
55.9	10765.9
55.91	11511.3
55.92	10679.2
55.93	10575.2
55.94	10748.5
55.95	10644.5
55.96	11251.3
55.97	10835.2
55.98	10869.9
55.99	11008.6
56	10540.5
56.01	10817.9
56.02	10315.1
56.03	11043.3
56.04	10488.5
56.05	10627.2
56.06	10731.2
56.07	10991.3
56.08	11372.7
56.09	10783.2
56.1	11476.7
56.11	10713.9
56.12	11424.7
56.13	10696.5
56.14	10661.9
56.15	10245.8
56.16	10713.9
56.17	11719.4
56.18	11650
56.19	12014.1
56.2	11736.7
56.21	11528.7
56.22	11962.1
56.23	12048.8
56.24	12395.5
56.25	12100.8
56.26	12620.9
56.27	13141
56.28	12898.3
56.29	12014.1
56.3	12447.5
56.31	12204.8
56.32	11996.8
56.33	12326.2
56.34	12898.3
56.35	11459.3
56.36	12083.5
56.37	12135.5
56.38	12204.8
56.39	11806.1
56.4	12828.9
56.41	11719.4
56.42	12984.9
56.43	12031.4
56.44	12343.5
56.45	13089
56.46	13054.3
56.47	12603.5
56.48	13574.4
56.49	13106.3
56.5	13886.4
56.51	16070.8
56.52	16781.6
56.53	17943.1
56.54	19278
56.55	20162.2
56.56	21115.7
56.57	22034.5
56.58	22086.5
56.59	21549.1
56.6	21462.4
56.61	19208.7
56.62	18237.9
56.63	16313.5
56.64	14458.5
56.65	14059.8
56.66	13401
56.67	12204.8
56.68	12048.8
56.69	11840.7
56.7	13626.4
56.71	13713.1
56.72	12742.2
56.73	14025.1
56.74	11962.1
56.75	12395.5
56.76	11927.4
56.77	11719.4
56.78	10991.3
56.79	10003.1
56.8	11008.6
56.81	10852.6
56.82	10280.5
56.83	9985.75
56.84	10211.1
56.85	10471.2
56.86	10003.1
56.87	10401.8
56.88	10471.2
56.89	10540.5
56.9	10783.2
56.91	10159.1
56.92	9812.39
56.93	10037.8
56.94	10644.5
56.95	9344.3
56.96	9812.39
56.97	9656.36
56.98	10055.1
56.99	9621.69
57	9673.69
57.01	9847.06
57.02	10124.4
57.03	10800.6
57.04	9621.69
57.05	9587.01
57.06	10505.8
57.07	9760.38
57.08	9847.06
57.09	9899.07
57.1	10280.5
57.11	10436.5
57.12	10557.8
57.13	10280.5
57.14	9743.04
57.15	10384.5
57.16	10488.5
57.17	9985.75
57.18	9656.36
57.19	10159.1
57.2	10575.2
57.21	9864.39
57.22	10384.5
57.23	9552.34
57.24	10141.8
57.25	10107.1
57.26	10315.1
57.27	10263.1
57.28	9535
57.29	9552.34
57.3	9899.07
57.31	9118.93
57.32	10401.8
57.33	10089.8
57.34	9795.05
57.35	9951.08
57.36	9257.62
57.37	9725.7
57.38	9708.37
57.39	10159.1
57.4	9708.37
57.41	10003.1
57.42	9899.07
57.43	10055.1
57.44	9795.05
57.45	9933.74
57.46	9465.66
57.47	9448.32
57.48	9916.4
57.49	9933.74
57.5	10349.8
57.51	9656.36
57.52	9344.3
57.53	9933.74
57.54	9743.04
57.55	10453.8
57.56	10557.8
57.57	10401.8
57.58	9604.35
57.59	9552.34
57.6	9014.91
57.61	9274.96
57.62	9812.39
57.63	9292.29
57.64	9621.69
57.65	9916.4
57.66	9344.3
57.67	10297.8
57.68	9847.06
57.69	10159.1
57.7	9430.99
57.71	9829.72
57.72	9847.06
57.73	9569.68
57.74	10245.8
57.75	9656.36
57.76	9153.6
57.77	9483
57.78	9777.71
57.79	10176.4
57.8	9777.71
57.81	10107.1
57.82	9743.04
57.83	10003.1
57.84	9448.32
57.85	9795.05
57.86	10020.4
57.87	9968.41
57.88	9188.28
57.89	9361.64
57.9	9881.73
57.91	9881.73
57.92	10072.4
57.93	9535
57.94	9881.73
57.95	9049.58
57.96	9552.34
57.97	10176.4
57.98	10141.8
57.99	10332.5
58	10141.8
58.01	9743.04
58.02	9309.63
58.03	9673.69
58.04	9448.32
58.05	8945.57
58.06	9448.32
58.07	9205.61
58.08	9864.39
58.09	10436.5
58.1	9621.69
58.11	9985.75
58.12	9604.35
58.13	9569.68
58.14	9933.74
58.15	9569.68
58.16	9396.31
58.17	8962.9
58.18	9396.31
58.19	9743.04
58.2	9795.05
58.21	9604.35
58.22	10055.1
58.23	9326.97
58.24	10384.5
58.25	9881.73
58.26	10107.1
58.27	8997.58
58.28	10384.5
58.29	10141.8
58.3	9361.64
58.31	9326.97
58.32	9084.26
58.33	9326.97
58.34	9829.72
58.35	9795.05
58.36	10020.4
58.37	9829.72
58.38	9673.69
58.39	8893.56
58.4	9743.04
58.41	9968.41
58.42	9760.38
58.43	9552.34
58.44	9968.41
58.45	9899.07
58.46	9569.68
58.47	9639.02
58.48	9292.29
58.49	9535
58.5	9448.32
58.51	9829.72
58.52	9951.08
58.53	9413.65
58.54	8876.22
58.55	9691.03
58.56	10020.4
58.57	9344.3
58.58	9500.33
58.59	9222.95
58.6	9795.05
58.61	10505.8
58.62	9725.7
58.63	8650.85
58.64	9430.99
58.65	9136.27
58.66	10020.4
58.67	9708.37
58.68	9292.29
58.69	9673.69
58.7	9760.38
58.71	9240.29
58.72	9777.71
58.73	9378.98
58.74	9361.64
58.75	9604.35
58.76	9552.34
58.77	9725.7
58.78	9569.68
58.79	9829.72
58.8	9847.06
58.81	9430.99
58.82	10037.8
58.83	9413.65
58.84	10176.4
58.85	9968.41
58.86	9535
58.87	9309.63
58.88	9812.39
58.89	9483
58.9	9743.04
58.91	9552.34
58.92	10020.4
58.93	8910.89
58.94	9361.64
58.95	9396.31
58.96	9552.34
58.97	9552.34
58.98	9985.75
58.99	9257.62
59	9014.91
59.01	9240.29
59.02	9656.36
59.03	9153.6
59.04	9170.94
59.05	9812.39
59.06	9881.73
59.07	9205.61
59.08	9240.29
59.09	8910.89
59.1	9465.66
59.11	9500.33
59.12	9292.29
59.13	9101.59
59.14	9587.01
59.15	9188.28
59.16	9569.68
59.17	9673.69
59.18	9153.6
59.19	9517.67
59.2	10037.8
59.21	9240.29
59.22	9188.28
59.23	10159.1
59.24	9777.71
59.25	9569.68
59.26	9292.29
59.27	9396.31
59.28	9448.32
59.29	9326.97
59.3	9292.29
59.31	8928.23
59.32	9188.28
59.33	9361.64
59.34	9708.37
59.35	9708.37
59.36	9378.98
59.37	9465.66
59.38	9309.63
59.39	9292.29
59.4	9951.08
59.41	9222.95
59.42	9777.71
59.43	9292.29
59.44	9326.97
59.45	9257.62
59.46	9760.38
59.47	9621.69
59.48	9413.65
59.49	8720.19
59.5	10193.8
59.51	9101.59
59.52	9604.35
59.53	9101.59
59.54	9743.04
59.55	8876.22
59.56	9847.06
59.57	9968.41
59.58	8824.21
59.59	9569.68
59.6	8789.54
59.61	9118.93
59.62	9014.91
59.63	9344.3
59.64	9066.92
59.65	8980.24
59.66	10020.4
59.67	8945.57
59.68	9708.37
59.69	9032.25
59.7	9500.33
59.71	9639.02
59.72	9153.6
59.73	10124.4
59.74	9326.97
59.75	9309.63
59.76	9170.94
59.77	8512.16
59.78	8564.17
59.79	8668.19
59.8	9344.3
59.81	9014.91
59.82	9032.25
59.83	9743.04
59.84	8997.58
59.85	9378.98
59.86	9743.04
59.87	9032.25
59.88	8442.81
59.89	9621.69
59.9	9656.36
59.91	9691.03
59.92	9448.32
59.93	9691.03
59.94	9066.92
59.95	9795.05
59.96	8841.55
59.97	8841.55
59.98	9604.35
59.99	8980.24
60	9326.97
60.01	9847.06
60.02	9257.62
60.03	9483
60.04	9205.61
60.05	9465.66
60.06	8962.9
60.07	9188.28
60.08	9032.25
60.09	9153.6
60.1	9517.67
60.11	9361.64
60.12	9309.63
60.13	9222.95
60.14	9483
60.15	9014.91
60.16	9587.01
60.17	8633.51
60.18	9153.6
60.19	9188.28
60.2	9240.29
60.21	9829.72
60.22	9274.96
60.23	8564.17
60.24	9413.65
60.25	9032.25
60.26	9881.73
60.27	8980.24
60.28	8217.44
60.29	9292.29
60.3	9084.26
60.31	8546.83
60.32	9673.69
60.33	9829.72
60.34	8841.55
60.35	9344.3
60.36	8876.22
60.37	8962.9
60.38	9170.94
60.39	8182.77
60.4	8893.56
60.41	9361.64
60.42	8772.2
60.43	9222.95
60.44	9032.25
60.45	8893.56
60.46	8806.88
60.47	8598.84
60.48	9136.27
60.49	8945.57
60.5	9448.32
60.51	9517.67
60.52	9552.34
60.53	9361.64
60.54	9309.63
60.55	9292.29
60.56	8477.49
60.57	9205.61
60.58	9812.39
60.59	9569.68
60.6	8702.86
60.61	9448.32
60.62	9101.59
60.63	8997.58
60.64	8893.56
60.65	9153.6
60.66	9309.63
60.67	8321.46
60.68	9222.95
60.69	9396.31
60.7	8616.18
60.71	9084.26
60.72	8789.54
60.73	8824.21
60.74	9777.71
60.75	8772.2
60.76	9344.3
60.77	8737.53
60.78	8806.88
60.79	8962.9
60.8	8980.24
60.81	8945.57
60.82	9396.31
60.83	8564.17
60.84	8945.57
60.85	9066.92
60.86	9725.7
60.87	9118.93
60.88	8789.54
60.89	8598.84
60.9	9257.62
60.91	8945.57
60.92	8910.89
60.93	9396.31
60.94	9326.97
60.95	8754.87
60.96	8217.44
60.97	8234.78
60.98	8217.44
60.99	8720.19
61	9032.25
61.01	8876.22
61.02	8841.55
61.03	8754.87
61.04	8581.5
61.05	8945.57
61.06	8824.21
61.07	8598.84
61.08	8893.56
61.09	8858.89
61.1	9257.62
61.11	8477.49
61.12	8806.88
61.13	9136.27
61.14	8789.54
61.15	9326.97
61.16	8650.85
61.17	8962.9
61.18	9257.62
61.19	8772.2
61.2	9101.59
61.21	9101.59
61.22	8650.85
61.23	8373.47
61.24	8876.22
61.25	9587.01
61.26	8477.49
61.27	8928.23
61.28	8685.52
61.29	9084.26
61.3	8945.57
61.31	8529.49
61.32	8789.54
61.33	9066.92
61.34	8546.83
61.35	8564.17
61.36	8980.24
61.37	9049.58
61.38	9084.26
61.39	8997.58
61.4	8841.55
61.41	8633.51
61.42	9222.95
61.43	9136.27
61.44	8824.21
61.45	8702.86
61.46	8806.88
61.47	8477.49
61.48	8269.45
61.49	9430.99
61.5	9413.65
61.51	8997.58
61.52	9032.25
61.53	9118.93
61.54	9292.29
61.55	8893.56
61.56	8806.88
61.57	9049.58
61.58	9205.61
61.59	9708.37
61.6	8460.15
61.61	8078.75
61.62	8425.48
61.63	8754.87
61.64	8789.54
61.65	8858.89
61.66	8182.77
61.67	8841.55
61.68	9014.91
61.69	8494.82
61.7	8668.19
61.71	8789.54
61.72	8962.9
61.73	8754.87
61.74	8494.82
61.75	8650.85
61.76	8061.41
61.77	8997.58
61.78	9136.27
61.79	8408.14
61.8	9136.27
61.81	8477.49
61.82	8494.82
61.83	8824.21
61.84	9222.95
61.85	8858.89
61.86	8824.21
61.87	9118.93
61.88	8650.85
61.89	8616.18
61.9	9118.93
61.91	8546.83
61.92	8702.86
61.93	8824.21
61.94	8754.87
61.95	8460.15
61.96	8512.16
61.97	8650.85
61.98	8668.19
61.99	8598.84
62	8321.46
62.01	8477.49
62.02	8546.83
62.03	9430.99
62.04	9118.93
62.05	9032.25
62.06	9101.59
62.07	9066.92
62.08	8858.89
62.09	8425.48
62.1	8113.42
62.11	8633.51
62.12	9014.91
62.13	9361.64
62.14	9170.94
62.15	8754.87
62.16	8910.89
62.17	8754.87
62.18	8650.85
62.19	9170.94
62.2	8789.54
62.21	8772.2
62.22	8789.54
62.23	8356.13
62.24	8962.9
62.25	9153.6
62.26	8442.81
62.27	8650.85
62.28	7957.39
62.29	8702.86
62.3	9032.25
62.31	9188.28
62.32	8442.81
62.33	8390.8
62.34	8546.83
62.35	9309.63
62.36	8806.88
62.37	8841.55
62.38	8304.12
62.39	8650.85
62.4	8061.41
62.41	9309.63
62.42	9205.61
62.43	8148.09
62.44	8113.42
62.45	8772.2
62.46	8026.74
62.47	8286.79
62.48	8668.19
62.49	8720.19
62.5	8494.82
62.51	9136.27
62.52	8702.86
62.53	8685.52
62.54	8685.52
62.55	8373.47
62.56	8772.2
62.57	8494.82
62.58	8841.55
62.59	8754.87
62.6	9448.32
62.61	8026.74
62.62	8269.45
62.63	8737.53
62.64	8338.79
62.65	8737.53
62.66	8026.74
62.67	8269.45
62.68	8529.49
62.69	7870.71
62.7	8650.85
62.71	8356.13
62.72	8217.44
62.73	7905.38
62.74	8858.89
62.75	8373.47
62.76	8460.15
62.77	8720.19
62.78	8581.5
62.79	8564.17
62.8	8529.49
62.81	9309.63
62.82	8858.89
62.83	9170.94
62.84	8668.19
62.85	8096.08
62.86	8286.79
62.87	8373.47
62.88	8564.17
62.89	8390.8
62.9	8009.4
62.91	8477.49
62.92	8338.79
62.93	7645.34
62.94	8616.18
62.95	8876.22
62.96	8494.82
62.97	8026.74
62.98	8633.51
62.99	8165.43
63	7957.39
63.01	8598.84
63.02	8910.89
63.03	8477.49
63.04	8893.56
63.05	8841.55
63.06	8806.88
63.07	8702.86
63.08	8841.55
63.09	8668.19
63.1	8286.79
63.11	8390.8
63.12	8702.86
63.13	8477.49
63.14	9049.58
63.15	8910.89
63.16	8286.79
63.17	8633.51
63.18	8546.83
63.19	8269.45
63.2	8633.51
63.21	8581.5
63.22	8182.77
63.23	8546.83
63.24	8962.9
63.25	8425.48
63.26	8685.52
63.27	8928.23
63.28	8737.53
63.29	8858.89
63.3	8685.52
63.31	8148.09
63.32	8477.49
63.33	8512.16
63.34	8217.44
63.35	7870.71
63.36	8685.52
63.37	8252.11
63.38	8408.14
63.39	8494.82
63.4	9743.04
63.41	8338.79
63.42	8304.12
63.43	8442.81
63.44	8408.14
63.45	8685.52
63.46	8217.44
63.47	8373.47
63.48	8754.87
63.49	8980.24
63.5	8477.49
63.51	9136.27
63.52	9066.92
63.53	8841.55
63.54	8928.23
63.55	8702.86
63.56	8546.83
63.57	8910.89
63.58	8754.87
63.59	8546.83
63.6	8772.2
63.61	8477.49
63.62	8165.43
63.63	8356.13
63.64	7801.37
63.65	8633.51
63.66	8373.47
63.67	8408.14
63.68	8408.14
63.69	7853.38
63.7	8806.88
63.71	8130.76
63.72	8165.43
63.73	8529.49
63.74	8962.9
63.75	8408.14
63.76	8269.45
63.77	8668.19
63.78	8252.11
63.79	8408.14
63.8	8373.47
63.81	8529.49
63.82	8564.17
63.83	8737.53
63.84	8737.53
63.85	8633.51
63.86	8997.58
63.87	8078.75
63.88	8789.54
63.89	8269.45
63.9	8182.77
63.91	9257.62
63.92	8512.16
63.93	8546.83
63.94	8217.44
63.95	8789.54
63.96	8668.19
63.97	7905.38
63.98	8096.08
63.99	8546.83
64	8477.49
64.01	8321.46
64.02	8304.12
64.03	7888.05
64.04	8460.15
64.05	8252.11
64.06	8304.12
64.07	8234.78
64.08	8286.79
64.09	8130.76
64.1	8130.76
64.11	8824.21
64.12	8737.53
64.13	8772.2
64.14	8269.45
64.15	8616.18
64.16	8200.1
64.17	8321.46
64.18	8581.5
64.19	8061.41
64.2	7662.68
64.21	8390.8
64.22	8217.44
64.23	7888.05
64.24	8182.77
64.25	8685.52
64.26	8512.16
64.27	8512.16
64.28	8408.14
64.29	8633.51
64.3	8252.11
64.31	8581.5
64.32	8858.89
64.33	8806.88
64.34	8772.2
64.35	8616.18
64.36	8494.82
64.37	7575.99
64.38	8200.1
64.39	8564.17
64.4	8130.76
64.41	7888.05
64.42	8338.79
64.43	8356.13
64.44	8061.41
64.45	8217.44
64.46	8494.82
64.47	7974.73
64.48	8338.79
64.49	8685.52
64.5	7714.69
64.51	8356.13
64.52	8286.79
64.53	8772.2
64.54	8113.42
64.55	8234.78
64.56	8858.89
64.57	8269.45
64.58	8044.08
64.59	8252.11
64.6	7818.7
64.61	8529.49
64.62	8408.14
64.63	8009.4
64.64	8373.47
64.65	8945.57
64.66	7749.36
64.67	8252.11
64.68	8200.1
64.69	7905.38
64.7	7957.39
64.71	8321.46
64.72	7974.73
64.73	8442.81
64.74	8165.43
64.75	8061.41
64.76	8252.11
64.77	8165.43
64.78	8633.51
64.79	8286.79
64.8	7957.39
64.81	7541.32
64.82	8044.08
64.83	8477.49
64.84	8494.82
64.85	8061.41
64.86	8269.45
64.87	8512.16
64.88	8113.42
64.89	8096.08
64.9	8546.83
64.91	8165.43
64.92	7888.05
64.93	8789.54
64.94	7992.07
64.95	8130.76
64.96	8078.75
64.97	7940.06
64.98	8581.5
64.99	8269.45
65	8564.17
65.01	8581.5
65.02	8442.81
65.03	8338.79
65.04	7697.35
65.05	9032.25
65.06	7888.05
65.07	8529.49
65.08	8512.16
65.09	7836.04
65.1	8130.76
65.11	7922.72
65.12	8200.1
65.13	8477.49
65.14	8338.79
65.15	8997.58
65.16	8234.78
65.17	7974.73
65.18	8130.76
65.19	8321.46
65.2	8425.48
65.21	8408.14
65.22	8061.41
65.23	7506.65
65.24	8425.48
65.25	8477.49
65.26	8737.53
65.27	7645.34
65.28	7974.73
65.29	8408.14
65.3	8893.56
65.31	8217.44
65.32	8581.5
65.33	8321.46
65.34	8182.77
65.35	7888.05
65.36	8338.79
65.37	8772.2
65.38	8564.17
65.39	7888.05
65.4	8182.77
65.41	8616.18
65.42	8096.08
65.43	8408.14
65.44	8477.49
65.45	7575.99
65.46	7940.06
65.47	7905.38
65.48	7957.39
65.49	8408.14
65.5	8338.79
65.51	8408.14
65.52	7853.38
65.53	7905.38
65.54	7818.7
65.55	8113.42
65.56	8026.74
65.57	7853.38
65.58	8165.43
65.59	8737.53
65.6	8910.89
65.61	8269.45
65.62	8633.51
65.63	8130.76
65.64	8165.43
65.65	8650.85
65.66	8876.22
65.67	8338.79
65.68	8494.82
65.69	8096.08
65.7	7853.38
65.71	7454.64
65.72	8408.14
65.73	7992.07
65.74	8304.12
65.75	7992.07
65.76	8772.2
65.77	8165.43
65.78	8633.51
65.79	8460.15
65.8	7870.71
65.81	7697.35
65.82	7836.04
65.83	8234.78
65.84	8529.49
65.85	8217.44
65.86	7940.06
65.87	7836.04
65.88	7714.69
65.89	8113.42
65.9	8096.08
65.91	7766.69
65.92	7575.99
65.93	8009.4
65.94	8113.42
65.95	8754.87
65.96	8269.45
65.97	8616.18
65.98	9240.29
65.99	7801.37
66	7836.04
66.01	8338.79
66.02	8061.41
66.03	8373.47
66.04	8321.46
66.05	8338.79
66.06	8304.12
66.07	7732.02
66.08	7992.07
66.09	7818.7
66.1	8598.84
66.11	7575.99
66.12	8408.14
66.13	8650.85
66.14	8494.82
66.15	8529.49
66.16	8130.76
66.17	7784.03
66.18	7853.38
66.19	8113.42
66.2	7211.93
66.21	7836.04
66.22	8026.74
66.23	8408.14
66.24	8529.49
66.25	8546.83
66.26	7784.03
66.27	8234.78
66.28	9257.62
66.29	9084.26
66.3	7818.7
66.31	7922.72
66.32	7870.71
66.33	8113.42
66.34	8234.78
66.35	8026.74
66.36	8269.45
66.37	7801.37
66.38	8373.47
66.39	8581.5
66.4	8130.76
66.41	8668.19
66.42	7940.06
66.43	8113.42
66.44	8390.8
66.45	8425.48
66.46	8373.47
66.47	7974.73
66.48	7801.37
66.49	7471.98
66.5	8720.19
66.51	7766.69
66.52	8425.48
66.53	8425.48
66.54	7853.38
66.55	7541.32
66.56	7853.38
66.57	8512.16
66.58	8165.43
66.59	7628
66.6	8477.49
66.61	8217.44
66.62	7749.36
66.63	8581.5
66.64	8182.77
66.65	8390.8
66.66	7940.06
66.67	8373.47
66.68	8165.43
66.69	8928.23
66.7	8044.08
66.71	8425.48
66.72	7853.38
66.73	8304.12
66.74	7818.7
66.75	7385.29
66.76	8044.08
66.77	8165.43
66.78	7922.72
66.79	7749.36
66.8	8356.13
66.81	7870.71
66.82	8252.11
66.83	8061.41
66.84	8200.1
66.85	8425.48
66.86	7732.02
66.87	7870.71
66.88	7922.72
66.89	8494.82
66.9	7315.95
66.91	7957.39
66.92	7836.04
66.93	7870.71
66.94	8113.42
66.95	8217.44
66.96	8373.47
66.97	7905.38
66.98	7697.35
66.99	7506.65
67	8148.09
67.01	7957.39
67.02	8113.42
67.03	7419.97
67.04	8182.77
67.05	7905.38
67.06	7853.38
67.07	7471.98
67.08	7142.58
67.09	7922.72
67.1	7367.96
67.11	8096.08
67.12	8598.84
67.13	8304.12
67.14	7853.38
67.15	7905.38
67.16	8425.48
67.17	7593.33
67.18	7593.33
67.19	7749.36
67.2	7766.69
67.21	8165.43
67.22	8182.77
67.23	7454.64
67.24	7732.02
67.25	8286.79
67.26	7489.31
67.27	7714.69
67.28	7506.65
67.29	7766.69
67.3	7888.05
67.31	8546.83
67.32	8356.13
67.33	7870.71
67.34	8321.46
67.35	7315.95
67.36	7714.69
67.37	7593.33
67.38	7784.03
67.39	7125.25
67.4	7818.7
67.41	7974.73
67.42	7437.3
67.43	7766.69
67.44	7853.38
67.45	8078.75
67.46	7628
67.47	7749.36
67.48	7437.3
67.49	8182.77
67.5	8078.75
67.51	8269.45
67.52	7766.69
67.53	7714.69
67.54	7732.02
67.55	8130.76
67.56	8460.15
67.57	7853.38
67.58	8009.4
67.59	7610.67
67.6	8165.43
67.61	8390.8
67.62	7888.05
67.63	8113.42
67.64	8234.78
67.65	7818.7
67.66	7593.33
67.67	7905.38
67.68	8200.1
67.69	7853.38
67.7	8217.44
67.71	8373.47
67.72	7853.38
67.73	8182.77
67.74	7506.65
67.75	7315.95
67.76	8078.75
67.77	8269.45
67.78	7836.04
67.79	7957.39
67.8	7992.07
67.81	7628
67.82	8546.83
67.83	8442.81
67.84	8200.1
67.85	7922.72
67.86	7818.7
67.87	8546.83
67.88	7541.32
67.89	7732.02
67.9	7957.39
67.91	8148.09
67.92	7818.7
67.93	7697.35
67.94	7922.72
67.95	7766.69
67.96	7385.29
67.97	8113.42
67.98	8165.43
67.99	7922.72
68	7853.38
68.01	8078.75
68.02	7437.3
68.03	7645.34
68.04	7628
68.05	7367.96
68.06	7714.69
68.07	7697.35
68.08	7645.34
68.09	7367.96
68.1	7506.65
68.11	7732.02
68.12	8009.4
68.13	7714.69
68.14	7784.03
68.15	7957.39
68.16	8286.79
68.17	7784.03
68.18	8182.77
68.19	7801.37
68.2	7471.98
68.21	8217.44
68.22	8269.45
68.23	7905.38
68.24	7680.01
68.25	8009.4
68.26	7281.28
68.27	7870.71
68.28	8668.19
68.29	7749.36
68.3	7263.94
68.31	7818.7
68.32	7506.65
68.33	7385.29
68.34	7575.99
68.35	7853.38
68.36	7697.35
68.37	8009.4
68.38	7367.96
68.39	7662.68
68.4	7749.36
68.41	7593.33
68.42	7419.97
68.43	8148.09
68.44	8148.09
68.45	7125.25
68.46	7367.96
68.47	7801.37
68.48	8130.76
68.49	7333.28
68.5	7523.98
68.51	8408.14
68.52	7957.39
68.53	8252.11
68.54	8078.75
68.55	7437.3
68.56	7662.68
68.57	7315.95
68.58	7714.69
68.59	7523.98
68.6	7992.07
68.61	7922.72
68.62	7055.9
68.63	7558.66
68.64	7766.69
68.65	7402.63
68.66	7229.27
68.67	7350.62
68.68	7419.97
68.69	7818.7
68.7	7333.28
68.71	7922.72
68.72	7558.66
68.73	8338.79
68.74	8130.76
68.75	7749.36
68.76	7177.26
68.77	7870.71
68.78	8252.11
68.79	7801.37
68.8	7645.34
68.81	7125.25
68.82	7992.07
68.83	8026.74
68.84	8096.08
68.85	7836.04
68.86	7333.28
68.87	7610.67
68.88	7992.07
68.89	7818.7
68.9	7749.36
68.91	7211.93
68.92	7402.63
68.93	7523.98
68.94	7419.97
68.95	7714.69
68.96	7038.57
68.97	7992.07
68.98	7385.29
68.99	7402.63
69	7367.96
69.01	7905.38
69.02	8026.74
69.03	7523.98
69.04	8165.43
69.05	8200.1
69.06	7714.69
69.07	7766.69
69.08	7523.98
69.09	7836.04
69.1	7402.63
69.11	7489.31
69.12	7853.38
69.13	7645.34
69.14	7905.38
69.15	7749.36
69.16	7593.33
69.17	7610.67
69.18	7489.31
69.19	7766.69
69.2	7402.63
69.21	7697.35
69.22	6743.85
69.23	7489.31
69.24	7697.35
69.25	7419.97
69.26	7437.3
69.27	7177.26
69.28	7610.67
69.29	7125.25
69.3	7905.38
69.31	7471.98
69.32	7680.01
69.33	7367.96
69.34	7766.69
69.35	7853.38
69.36	8044.08
69.37	7298.61
69.38	7662.68
69.39	8356.13
69.4	6865.2
69.41	7003.89
69.42	7506.65
69.43	7662.68
69.44	7853.38
69.45	7090.58
69.46	7714.69
69.47	7541.32
69.48	7974.73
69.49	8200.1
69.5	8113.42
69.51	7940.06
69.52	7905.38
69.53	7662.68
69.54	8044.08
69.55	7628
69.56	7506.65
69.57	8096.08
69.58	7662.68
69.59	8113.42
69.6	7541.32
69.61	8061.41
69.62	7281.28
69.63	7471.98
69.64	7523.98
69.65	7454.64
69.66	7575.99
69.67	7992.07
69.68	7419.97
69.69	7610.67
69.7	7957.39
69.71	7333.28
69.72	7680.01
69.73	7818.7
69.74	7749.36
69.75	7489.31
69.76	7541.32
69.77	7177.26
69.78	8113.42
69.79	7628
69.8	7784.03
69.81	7732.02
69.82	8061.41
69.83	7315.95
69.84	7281.28
69.85	7298.61
69.86	7437.3
69.87	8044.08
69.88	7749.36
69.89	7766.69
69.9	7523.98
69.91	7870.71
69.92	7211.93
69.93	7714.69
69.94	7957.39
69.95	7905.38
69.96	7714.69
69.97	7333.28
69.98	7662.68
69.99	7385.29
70	7749.36
70.01	7749.36
70.02	7246.6
70.03	7558.66
70.04	7784.03
70.05	7333.28
70.06	7385.29
70.07	8113.42
70.08	7940.06
70.09	7194.59
70.1	6830.53
70.11	8286.79
70.12	7957.39
70.13	7506.65
70.14	7992.07
70.15	7766.69
70.16	8026.74
70.17	7714.69
70.18	7940.06
70.19	7367.96
70.2	7801.37
70.21	7194.59
70.22	6709.18
70.23	7680.01
70.24	7177.26
70.25	7870.71
70.26	7714.69
70.27	7541.32
70.28	7888.05
70.29	8026.74
70.3	8304.12
70.31	7957.39
70.32	7575.99
70.33	8009.4
70.34	7350.62
70.35	7402.63
70.36	7732.02
70.37	7749.36
70.38	7992.07
70.39	7229.27
70.4	7437.3
70.41	8009.4
70.42	7784.03
70.43	7402.63
70.44	6813.19
70.45	7298.61
70.46	7367.96
70.47	7593.33
70.48	7922.72
70.49	8009.4
70.5	7263.94
70.51	7489.31
70.52	7402.63
70.53	7489.31
70.54	7714.69
70.55	7211.93
70.56	7558.66
70.57	7523.98
70.58	7333.28
70.59	7333.28
70.6	7818.7
70.61	7662.68
70.62	7992.07
70.63	7610.67
70.64	7905.38
70.65	7298.61
70.66	7385.29
70.67	7281.28
70.68	7784.03
70.69	7506.65
70.7	7263.94
70.71	7402.63
70.72	7506.65
70.73	7367.96
70.74	7246.6
70.75	7801.37
70.76	7922.72
70.77	7940.06
70.78	7454.64
70.79	7610.67
70.8	7298.61
70.81	7541.32
70.82	7888.05
70.83	7367.96
70.84	7489.31
70.85	7784.03
70.86	7628
70.87	7055.9
70.88	8356.13
70.89	8581.5
70.9	8477.49
70.91	7281.28
70.92	7315.95
70.93	7940.06
70.94	6778.52
70.95	7419.97
70.96	7593.33
70.97	7541.32
70.98	7645.34
70.99	7766.69
71	7541.32
71.01	7558.66
71.02	7575.99
71.03	6934.55
71.04	8252.11
71.05	7680.01
71.06	7628
71.07	7888.05
71.08	6969.22
71.09	7246.6
71.1	7471.98
71.11	7766.69
71.12	7177.26
71.13	7194.59
71.14	7350.62
71.15	8078.75
71.16	7350.62
71.17	7159.92
71.18	7298.61
71.19	7177.26
71.2	6778.52
71.21	7662.68
71.22	7454.64
71.23	6813.19
71.24	7385.29
71.25	7575.99
71.26	8304.12
71.27	7645.34
71.28	7437.3
71.29	7038.57
71.3	7541.32
71.31	6726.51
71.32	7055.9
71.33	7645.34
71.34	7263.94
71.35	7957.39
71.36	7367.96
71.37	8009.4
71.38	7749.36
71.39	7211.93
71.4	7714.69
71.41	7818.7
71.42	7194.59
71.43	8200.1
71.44	7350.62
71.45	7125.25
71.46	7749.36
71.47	7575.99
71.48	6917.21
71.49	7402.63
71.5	7575.99
71.51	6743.85
71.52	8113.42
71.53	6795.86
71.54	7402.63
71.55	7402.63
71.56	7454.64
71.57	7246.6
71.58	7350.62
71.59	7437.3
71.6	6934.55
71.61	7523.98
71.62	7367.96
71.63	7575.99
71.64	7246.6
71.65	7177.26
71.66	7680.01
71.67	7593.33
71.68	8044.08
71.69	7263.94
71.7	7298.61
71.71	7801.37
71.72	7107.91
71.73	7385.29
71.74	7454.64
71.75	7437.3
71.76	7107.91
71.77	7246.6
71.78	7350.62
71.79	7194.59
71.8	7714.69
71.81	7229.27
71.82	6969.22
71.83	7281.28
71.84	7749.36
71.85	7350.62
71.86	7419.97
71.87	7107.91
71.88	7177.26
71.89	7003.89
71.9	7159.92
71.91	7229.27
71.92	7593.33
71.93	6934.55
71.94	7367.96
71.95	8026.74
71.96	7697.35
71.97	7974.73
71.98	7471.98
71.99	7575.99
72	6743.85
72.01	7263.94
72.02	7298.61
72.03	7246.6
72.04	7888.05
72.05	7281.28
72.06	7541.32
72.07	7853.38
72.08	7367.96
72.09	7628
72.1	7714.69
72.11	7853.38
72.12	7315.95
72.13	7680.01
72.14	7766.69
72.15	7038.57
72.16	7055.9
72.17	7385.29
72.18	7125.25
72.19	7350.62
72.2	6830.53
72.21	7211.93
72.22	7940.06
72.23	7628
72.24	7732.02
72.25	6917.21
72.26	6657.17
72.27	7090.58
72.28	7506.65
72.29	7610.67
72.3	7142.58
72.31	7125.25
72.32	7055.9
72.33	7367.96
72.34	6917.21
72.35	7367.96
72.36	7333.28
72.37	7714.69
72.38	6986.56
72.39	7298.61
72.4	6847.87
72.41	7628
72.42	7159.92
72.43	7333.28
72.44	7680.01
72.45	7367.96
72.46	7957.39
72.47	7229.27
72.48	6951.88
72.49	7471.98
72.5	7437.3
72.51	7263.94
72.52	7298.61
72.53	7558.66
72.54	7055.9
72.55	7315.95
72.56	7350.62
72.57	7662.68
72.58	7385.29
72.59	7489.31
72.6	8304.12
72.61	7697.35
72.62	7489.31
72.63	7471.98
72.64	7211.93
72.65	7090.58
72.66	7575.99
72.67	6917.21
72.68	7662.68
72.69	7385.29
72.7	7610.67
72.71	7575.99
72.72	7211.93
72.73	7125.25
72.74	7593.33
72.75	8026.74
72.76	7437.3
72.77	6969.22
72.78	7281.28
72.79	6882.54
72.8	7506.65
72.81	7454.64
72.82	7125.25
72.83	6917.21
72.84	7489.31
72.85	7385.29
72.86	7350.62
72.87	7298.61
72.88	7350.62
72.89	7246.6
72.9	7766.69
72.91	7471.98
72.92	7610.67
72.93	7090.58
72.94	7125.25
72.95	7610.67
72.96	7680.01
72.97	7333.28
72.98	6397.12
72.99	6778.52
73	7506.65
73.01	7367.96
73.02	7350.62
73.03	7367.96
73.04	7454.64
73.05	7246.6
73.06	7506.65
73.07	6969.22
73.08	6934.55
73.09	7662.68
73.1	7350.62
73.11	7714.69
73.12	7558.66
73.13	7350.62
73.14	7593.33
73.15	7055.9
73.16	7315.95
73.17	7333.28
73.18	7437.3
73.19	8217.44
73.2	6795.86
73.21	7523.98
73.22	7454.64
73.23	7489.31
73.24	6986.56
73.25	7142.58
73.26	7645.34
73.27	7281.28
73.28	7558.66
73.29	7645.34
73.3	7246.6
73.31	7177.26
73.32	7419.97
73.33	8217.44
73.34	6830.53
73.35	7229.27
73.36	7298.61
73.37	7558.66
73.38	7922.72
73.39	7714.69
73.4	7940.06
73.41	7003.89
73.42	7298.61
73.43	7211.93
73.44	8026.74
73.45	7870.71
73.46	7471.98
73.47	7593.33
73.48	7489.31
73.49	7211.93
73.5	7610.67
73.51	7159.92
73.52	7194.59
73.53	6882.54
73.54	7489.31
73.55	7142.58
73.56	7298.61
73.57	7766.69
73.58	7697.35
73.59	7471.98
73.6	7714.69
73.61	7298.61
73.62	7073.24
73.63	7263.94
73.64	7523.98
73.65	7541.32
73.66	7298.61
73.67	7142.58
73.68	7697.35
73.69	8096.08
73.7	7367.96
73.71	7402.63
73.72	7749.36
73.73	7714.69
73.74	7593.33
73.75	8252.11
73.76	8460.15
73.77	7610.67
73.78	7125.25
73.79	8633.51
73.8	7211.93
73.81	7402.63
73.82	7818.7
73.83	7246.6
73.84	7367.96
73.85	7818.7
73.86	7281.28
73.87	6951.88
73.88	7766.69
73.89	8165.43
73.9	7593.33
73.91	7055.9
73.92	7784.03
73.93	7541.32
73.94	7610.67
73.95	7194.59
73.96	7870.71
73.97	7680.01
73.98	7818.7
73.99	7749.36
74	7628
74.01	7697.35
74.02	7593.33
74.03	7055.9
74.04	7021.23
74.05	7714.69
74.06	7749.36
74.07	8148.09
74.08	7784.03
74.09	7749.36
74.1	7575.99
74.11	7732.02
74.12	7489.31
74.13	8096.08
74.14	7766.69
74.15	7558.66
74.16	7905.38
74.17	7749.36
74.18	7870.71
74.19	7471.98
74.2	7732.02
74.21	7385.29
74.22	7281.28
74.23	8304.12
74.24	7714.69
74.25	7905.38
74.26	7818.7
74.27	7714.69
74.28	8581.5
74.29	8078.75
74.3	7107.91
74.31	7315.95
74.32	7662.68
74.33	7281.28
74.34	7021.23
74.35	7558.66
74.36	7021.23
74.37	7541.32
74.38	7853.38
74.39	7940.06
74.4	7523.98
74.41	7749.36
74.42	7870.71
74.43	7662.68
74.44	7766.69
74.45	7888.05
74.46	8234.78
74.47	7506.65
74.48	7419.97
74.49	7940.06
74.5	7940.06
74.51	7385.29
74.52	7888.05
74.53	7801.37
74.54	7437.3
74.55	7662.68
74.56	7940.06
74.57	8078.75
74.58	7367.96
74.59	7974.73
74.6	8668.19
74.61	8026.74
74.62	8234.78
74.63	8078.75
74.64	7419.97
74.65	7471.98
74.66	7697.35
74.67	7766.69
74.68	7437.3
74.69	8078.75
74.7	7714.69
74.71	7801.37
74.72	7662.68
74.73	7211.93
74.74	7836.04
74.75	7853.38
74.76	7419.97
74.77	7905.38
74.78	8286.79
74.79	8078.75
74.8	7801.37
74.81	8165.43
74.82	7610.67
74.83	7662.68
74.84	8460.15
74.85	7125.25
74.86	8078.75
74.87	8460.15
74.88	7974.73
74.89	7992.07
74.9	7888.05
74.91	7628
74.92	7454.64
74.93	7697.35
74.94	7870.71
74.95	7766.69
74.96	7541.32
74.97	7628
74.98	7662.68
74.99	7766.69
75	7974.73
75.01	8269.45
75.02	8130.76
75.03	7836.04
75.04	8200.1
75.05	8650.85
75.06	8529.49
75.07	8390.8
75.08	8009.4
75.09	7714.69
75.1	7732.02
75.11	7714.69
75.12	8009.4
75.13	8633.51
75.14	8321.46
75.15	8061.41
75.16	7523.98
75.17	7766.69
75.18	8390.8
75.19	8789.54
75.2	8252.11
75.21	8148.09
75.22	7784.03
75.23	8026.74
75.24	8286.79
75.25	8304.12
75.26	8044.08
75.27	8720.19
75.28	7766.69
75.29	7784.03
75.3	8130.76
75.31	8598.84
75.32	8286.79
75.33	7888.05
75.34	8182.77
75.35	8182.77
75.36	7610.67
75.37	7732.02
75.38	8945.57
75.39	8668.19
75.4	8234.78
75.41	7922.72
75.42	7957.39
75.43	8373.47
75.44	7940.06
75.45	7957.39
75.46	7766.69
75.47	8165.43
75.48	8148.09
75.49	8304.12
75.5	7784.03
75.51	7940.06
75.52	8165.43
75.53	8148.09
75.54	8286.79
75.55	8234.78
75.56	7818.7
75.57	7888.05
75.58	8945.57
75.59	8234.78
75.6	8442.81
75.61	8286.79
75.62	8702.86
75.63	8286.79
75.64	8200.1
75.65	8910.89
75.66	8546.83
75.67	7766.69
75.68	8234.78
75.69	8460.15
75.7	8217.44
75.71	8460.15
75.72	8529.49
75.73	8096.08
75.74	8200.1
75.75	7697.35
75.76	8633.51
75.77	8512.16
75.78	7905.38
75.79	8962.9
75.8	8286.79
75.81	8858.89
75.82	8338.79
75.83	8321.46
75.84	8546.83
75.85	9153.6
75.86	8512.16
75.87	9881.73
75.88	9517.67
75.89	9257.62
75.9	10211.1
75.91	9292.29
75.92	10141.8
75.93	10159.1
75.94	10176.4
75.95	11112.6
75.96	11303.3
75.97	12222.1
75.98	12707.6
75.99	12620.9
76	13435.7
76.01	13435.7
76.02	12499.5
76.03	11840.7
76.04	11563.4
76.05	11234
76.06	11667.4
76.07	10973.9
76.08	10575.2
76.09	10869.9
76.1	11060.6
76.11	12066.1
76.12	11008.6
76.13	11077.9
76.14	11684.7
76.15	11268.6
76.16	12620.9
76.17	12534.2
76.18	12360.8
76.19	12360.8
76.2	12707.6
76.21	12759.6
76.22	11858.1
76.23	11268.6
76.24	11424.7
76.25	11996.8
76.26	11667.4
76.27	12222.1
76.28	12152.8
76.29	11702
76.3	12083.5
76.31	12308.8
76.32	12291.5
76.33	12256.8
76.34	13106.3
76.35	13349
76.36	15048
76.37	15100
76.38	14406.5
76.39	13782.4
76.4	12724.9
76.41	12204.8
76.42	11615.4
76.43	12291.5
76.44	12014.1
76.45	11182
76.46	10869.9
76.47	11736.7
76.48	10731.2
76.49	11788.7
76.5	10748.5
76.51	11199.3
76.52	10696.5
76.53	11060.6
76.54	11112.6
76.55	10973.9
76.56	11234
76.57	11476.7
76.58	10419.2
76.59	9673.69
76.6	9465.66
76.61	10193.8
76.62	9881.73
76.63	9968.41
76.64	9951.08
76.65	9743.04
76.66	9881.73
76.67	9378.98
76.68	9535
76.69	9933.74
76.7	9118.93
76.71	9205.61
76.72	9257.62
76.73	9760.38
76.74	8876.22
76.75	8737.53
76.76	8460.15
76.77	8460.15
76.78	9257.62
76.79	9274.96
76.8	8460.15
76.81	9153.6
76.82	8806.88
76.83	8616.18
76.84	9378.98
76.85	8182.77
76.86	8096.08
76.87	8338.79
76.88	8304.12
76.89	8529.49
76.9	8390.8
76.91	8789.54
76.92	8754.87
76.93	9118.93
76.94	9413.65
76.95	8477.49
76.96	8841.55
76.97	9274.96
76.98	9032.25
76.99	8737.53
77	9136.27
77.01	8564.17
77.02	8858.89
77.03	8685.52
77.04	8650.85
77.05	8928.23
77.06	9344.3
77.07	9049.58
77.08	8026.74
77.09	8616.18
77.1	8945.57
77.11	8685.52
77.12	8789.54
77.13	8304.12
77.14	8460.15
77.15	8720.19
77.16	8685.52
77.17	8373.47
77.18	8928.23
77.19	8633.51
77.2	8252.11
77.21	8304.12
77.22	8564.17
77.23	8772.2
77.24	8234.78
77.25	8408.14
77.26	8425.48
77.27	9049.58
77.28	8668.19
77.29	8598.84
77.3	8824.21
77.31	8442.81
77.32	8616.18
77.33	8304.12
77.34	9014.91
77.35	8702.86
77.36	8702.86
77.37	8026.74
77.38	8408.14
77.39	8408.14
77.4	8390.8
77.41	8598.84
77.42	8338.79
77.43	7714.69
77.44	7801.37
77.45	8564.17
77.46	9066.92
77.47	8598.84
77.48	8772.2
77.49	8789.54
77.5	8702.86
77.51	9205.61
77.52	8737.53
77.53	8096.08
77.54	8928.23
77.55	9569.68
77.56	8806.88
77.57	8425.48
77.58	8061.41
77.59	8096.08
77.6	8460.15
77.61	8130.76
77.62	8633.51
77.63	7992.07
77.64	8165.43
77.65	8494.82
77.66	8130.76
77.67	8581.5
77.68	7974.73
77.69	8477.49
77.7	8200.1
77.71	8910.89
77.72	8581.5
77.73	8633.51
77.74	8633.51
77.75	8997.58
77.76	8806.88
77.77	8702.86
77.78	8980.24
77.79	8720.19
77.8	8581.5
77.81	9049.58
77.82	8945.57
77.83	8789.54
77.84	8858.89
77.85	8997.58
77.86	8477.49
77.87	7957.39
77.88	8286.79
77.89	8286.79
77.9	8841.55
77.91	8373.47
77.92	8806.88
77.93	8321.46
77.94	9118.93
77.95	8754.87
77.96	8408.14
77.97	8581.5
77.98	8754.87
77.99	8425.48
78	8858.89
78.01	8096.08
78.02	8217.44
78.03	8148.09
78.04	8113.42
78.05	8841.55
78.06	8737.53
78.07	8286.79
78.08	7940.06
78.09	8200.1
78.1	8338.79
78.11	9309.63
78.12	8512.16
78.13	8928.23
78.14	8650.85
78.15	8806.88
78.16	8564.17
78.17	8148.09
78.18	8442.81
78.19	8234.78
78.2	8096.08
78.21	8096.08
78.22	8442.81
78.23	8564.17
78.24	7940.06
78.25	8390.8
78.26	8078.75
78.27	8200.1
78.28	8390.8
78.29	8373.47
78.3	8910.89
78.31	8512.16
78.32	8945.57
78.33	8338.79
78.34	8061.41
78.35	8460.15
78.36	8564.17
78.37	7610.67
78.38	8720.19
78.39	8252.11
78.4	8425.48
78.41	8165.43
78.42	8685.52
78.43	8286.79
78.44	8477.49
78.45	8304.12
78.46	8460.15
78.47	8408.14
78.48	8494.82
78.49	8096.08
78.5	8668.19
78.51	8633.51
78.52	7818.7
78.53	8806.88
78.54	8876.22
78.55	7836.04
78.56	8338.79
78.57	8234.78
78.58	8876.22
78.59	8338.79
78.6	8668.19
78.61	8096.08
78.62	8078.75
78.63	8338.79
78.64	7870.71
78.65	8876.22
78.66	8512.16
78.67	8442.81
78.68	8806.88
78.69	8234.78
78.7	8408.14
78.71	8581.5
78.72	8130.76
78.73	8616.18
78.74	8581.5
78.75	8754.87
78.76	8633.51
78.77	9222.95
78.78	8685.52
78.79	9552.34
78.8	8130.76
78.81	9014.91
78.82	7853.38
78.83	7940.06
78.84	8460.15
78.85	8304.12
78.86	8512.16
78.87	8408.14
78.88	8148.09
78.89	8165.43
78.9	7992.07
78.91	8373.47
78.92	8252.11
78.93	8858.89
78.94	9066.92
78.95	8633.51
78.96	8217.44
78.97	8633.51
78.98	7992.07
78.99	8685.52
79	8962.9
79.01	7957.39
79.02	8685.52
79.03	8286.79
79.04	7888.05
79.05	8737.53
79.06	8234.78
79.07	7593.33
79.08	8529.49
79.09	8286.79
79.1	8841.55
79.11	8824.21
79.12	8148.09
79.13	8304.12
79.14	7818.7
79.15	7922.72
79.16	8633.51
79.17	8633.51
79.18	8113.42
79.19	9101.59
79.2	8286.79
79.21	8373.47
79.22	8252.11
79.23	8182.77
79.24	7957.39
79.25	9118.93
79.26	8130.76
79.27	7558.66
79.28	7593.33
79.29	8252.11
79.3	8252.11
79.31	8061.41
79.32	8200.1
79.33	8598.84
79.34	8217.44
79.35	8546.83
79.36	8616.18
79.37	7992.07
79.38	8876.22
79.39	8061.41
79.4	8737.53
79.41	8720.19
79.42	8252.11
79.43	8529.49
79.44	7922.72
79.45	7992.07
79.46	8061.41
79.47	8113.42
79.48	8425.48
79.49	8234.78
79.5	8425.48
79.51	9500.33
79.52	8373.47
79.53	8321.46
79.54	8494.82
79.55	7766.69
79.56	8096.08
79.57	7957.39
79.58	8546.83
79.59	8304.12
79.6	8044.08
79.61	8130.76
79.62	8494.82
79.63	8200.1
79.64	8044.08
79.65	8408.14
79.66	8442.81
79.67	8130.76
79.68	7628
79.69	7957.39
79.7	8026.74
79.71	7957.39
79.72	7922.72
79.73	7628
79.74	7836.04
79.75	7940.06
79.76	8252.11
79.77	8338.79
79.78	8200.1
79.79	8390.8
79.8	8442.81
79.81	8269.45
79.82	8477.49
79.83	8338.79
79.84	7818.7
79.85	8668.19
79.86	8564.17
79.87	8373.47
79.88	8425.48
79.89	7992.07
79.9	7662.68
79.91	7957.39
79.92	8165.43
79.93	8026.74
79.94	8737.53
79.95	8477.49
79.96	8338.79
79.97	8182.77
79.98	8200.1
79.99	8720.19
80	8616.18
80.01	8321.46
80.02	8390.8
80.03	8130.76
80.04	8234.78
80.05	7662.68
80.06	7836.04
80.07	8078.75
80.08	8182.77
80.09	8616.18
80.1	8338.79
80.11	8009.4
80.12	7957.39
80.13	8616.18
80.14	8702.86
80.15	8945.57
80.16	8408.14
80.17	7888.05
80.18	7818.7
80.19	7888.05
80.2	8321.46
80.21	8200.1
80.22	8668.19
80.23	9049.58
80.24	8321.46
80.25	8252.11
80.26	8616.18
80.27	8390.8
80.28	8408.14
80.29	8182.77
80.3	8321.46
80.31	7801.37
80.32	8425.48
80.33	8737.53
80.34	8026.74
80.35	8096.08
80.36	8425.48
80.37	8477.49
80.38	7992.07
80.39	7974.73
80.4	7853.38
80.41	8408.14
80.42	7749.36
80.43	7940.06
80.44	7992.07
80.45	8789.54
80.46	8286.79
80.47	8148.09
80.48	8234.78
80.49	8078.75
80.5	8165.43
80.51	8546.83
80.52	9101.59
80.53	7801.37
80.54	8044.08
80.55	8460.15
80.56	8044.08
80.57	8685.52
80.58	8598.84
80.59	8338.79
80.6	7870.71
80.61	8338.79
80.62	7957.39
80.63	7766.69
80.64	8356.13
80.65	8286.79
80.66	7628
80.67	8217.44
80.68	8425.48
80.69	8234.78
80.7	8165.43
80.71	8338.79
80.72	8304.12
80.73	8217.44
80.74	8321.46
80.75	7836.04
80.76	7922.72
80.77	7888.05
80.78	8772.2
80.79	8304.12
80.8	8338.79
80.81	8182.77
80.82	8286.79
80.83	7836.04
80.84	8321.46
80.85	8200.1
80.86	7888.05
80.87	8581.5
80.88	8477.49
80.89	8113.42
80.9	8425.48
80.91	8581.5
80.92	7853.38
80.93	7697.35
80.94	8200.1
80.95	8130.76
80.96	8546.83
80.97	7766.69
80.98	8200.1
80.99	7940.06
81	8858.89
81.01	8286.79
81.02	7818.7
81.03	7974.73
81.04	8390.8
81.05	7784.03
81.06	7801.37
81.07	8026.74
81.08	7489.31
81.09	7732.02
81.1	8581.5
81.11	8026.74
81.12	8148.09
81.13	7818.7
81.14	8113.42
81.15	7974.73
81.16	8494.82
81.17	8269.45
81.18	7610.67
81.19	7506.65
81.2	7489.31
81.21	8304.12
81.22	8460.15
81.23	8200.1
81.24	8113.42
81.25	8408.14
81.26	8737.53
81.27	7853.38
81.28	8096.08
81.29	8200.1
81.3	7732.02
81.31	8096.08
81.32	8200.1
81.33	8009.4
81.34	8217.44
81.35	7940.06
81.36	8182.77
81.37	7957.39
81.38	7680.01
81.39	7940.06
81.4	8321.46
81.41	8234.78
81.42	7870.71
81.43	7766.69
81.44	7905.38
81.45	8252.11
81.46	8442.81
81.47	8044.08
81.48	8581.5
81.49	7766.69
81.5	8217.44
81.51	8321.46
81.52	7992.07
81.53	8304.12
81.54	8616.18
81.55	7714.69
81.56	7784.03
81.57	7749.36
81.58	8148.09
81.59	8650.85
81.6	8304.12
81.61	7974.73
81.62	7784.03
81.63	8373.47
81.64	7628
81.65	7801.37
81.66	8096.08
81.67	7697.35
81.68	7662.68
81.69	8962.9
81.7	8442.81
81.71	7853.38
81.72	7905.38
81.73	7992.07
81.74	8356.13
81.75	8130.76
81.76	8113.42
81.77	7523.98
81.78	8390.8
81.79	7541.32
81.8	7558.66
81.81	7836.04
81.82	8165.43
81.83	7922.72
81.84	8130.76
81.85	8286.79
81.86	7888.05
81.87	7558.66
81.88	8373.47
81.89	7818.7
81.9	7957.39
81.91	8148.09
81.92	7558.66
81.93	8269.45
81.94	7766.69
81.95	7836.04
81.96	7940.06
81.97	8078.75
81.98	7367.96
81.99	7749.36
82	7628
82.01	7558.66
82.02	8789.54
82.03	7836.04
82.04	7766.69
82.05	7940.06
82.06	8425.48
82.07	8165.43
82.08	8512.16
82.09	8044.08
82.1	7749.36
82.11	8200.1
82.12	8286.79
82.13	8061.41
82.14	8252.11
82.15	7367.96
82.16	7818.7
82.17	7853.38
82.18	7836.04
82.19	7680.01
82.2	8009.4
82.21	8165.43
82.22	8390.8
82.23	7888.05
82.24	7784.03
82.25	7489.31
82.26	7836.04
82.27	7732.02
82.28	7888.05
82.29	7818.7
82.3	8269.45
82.31	8425.48
82.32	8460.15
82.33	7680.01
82.34	7922.72
82.35	7940.06
82.36	7281.28
82.37	7697.35
82.38	7749.36
82.39	7419.97
82.4	8720.19
82.41	8702.86
82.42	7697.35
82.43	7957.39
82.44	8009.4
82.45	7315.95
82.46	7853.38
82.47	7922.72
82.48	7714.69
82.49	7697.35
82.5	7836.04
82.51	7714.69
82.52	7784.03
82.53	8182.77
82.54	7784.03
82.55	8044.08
82.56	7801.37
82.57	8009.4
82.58	7888.05
82.59	7367.96
82.6	7784.03
82.61	8408.14
82.62	8078.75
82.63	8165.43
82.64	7940.06
82.65	8061.41
82.66	7766.69
82.67	7888.05
82.68	8044.08
82.69	8148.09
82.7	7211.93
82.71	8564.17
82.72	7593.33
82.73	7905.38
82.74	7541.32
82.75	7697.35
82.76	8321.46
82.77	7870.71
82.78	7818.7
82.79	7801.37
82.8	7940.06
82.81	7818.7
82.82	7905.38
82.83	7419.97
82.84	7003.89
82.85	7818.7
82.86	8026.74
82.87	8009.4
82.88	7922.72
82.89	7593.33
82.9	7628
82.91	7506.65
82.92	8182.77
82.93	7974.73
82.94	8113.42
82.95	8182.77
82.96	7593.33
82.97	7870.71
82.98	7836.04
82.99	7957.39
83	7697.35
83.01	7298.61
83.02	7836.04
83.03	8494.82
83.04	7905.38
83.05	7836.04
83.06	8026.74
83.07	7974.73
83.08	7992.07
83.09	7437.3
83.1	7732.02
83.11	8182.77
83.12	7298.61
83.13	7905.38
83.14	7974.73
83.15	7732.02
83.16	7732.02
83.17	7957.39
83.18	7870.71
83.19	8598.84
83.2	7628
83.21	7680.01
83.22	8061.41
83.23	7506.65
83.24	7142.58
83.25	7125.25
83.26	8148.09
83.27	8113.42
83.28	7471.98
83.29	8009.4
83.3	7697.35
83.31	7714.69
83.32	8182.77
83.33	8113.42
83.34	7766.69
83.35	7766.69
83.36	7506.65
83.37	7211.93
83.38	7836.04
83.39	7766.69
83.4	8217.44
83.41	8009.4
83.42	8824.21
83.43	8009.4
83.44	7038.57
83.45	7385.29
83.46	7662.68
83.47	7558.66
83.48	8044.08
83.49	7523.98
83.5	7905.38
83.51	7853.38
83.52	7315.95
83.53	8096.08
83.54	8130.76
83.55	8165.43
83.56	7333.28
83.57	8269.45
83.58	7246.6
83.59	7385.29
83.6	7506.65
83.61	7853.38
83.62	7714.69
83.63	7680.01
83.64	7732.02
83.65	7575.99
83.66	7541.32
83.67	7437.3
83.68	7229.27
83.69	7628
83.7	7489.31
83.71	8148.09
83.72	7454.64
83.73	8182.77
83.74	7992.07
83.75	7107.91
83.76	7177.26
83.77	7315.95
83.78	7246.6
83.79	7905.38
83.8	7974.73
83.81	7888.05
83.82	7541.32
83.83	7870.71
83.84	8113.42
83.85	7680.01
83.86	7922.72
83.87	7298.61
83.88	7471.98
83.89	7211.93
83.9	7697.35
83.91	8408.14
83.92	7784.03
83.93	7523.98
83.94	7680.01
83.95	7697.35
83.96	7593.33
83.97	7489.31
83.98	8390.8
83.99	7107.91
84	7246.6
84.01	7523.98
84.02	7732.02
84.03	7437.3
84.04	7593.33
84.05	7159.92
84.06	8061.41
84.07	7628
84.08	7818.7
84.09	7610.67
84.1	7506.65
84.11	7714.69
84.12	7454.64
84.13	7662.68
84.14	6934.55
84.15	7992.07
84.16	7471.98
84.17	7333.28
84.18	7523.98
84.19	7957.39
84.2	7021.23
84.21	7177.26
84.22	7263.94
84.23	7940.06
84.24	7628
84.25	7489.31
84.26	7073.24
84.27	7818.7
84.28	7870.71
84.29	6969.22
84.3	7784.03
84.31	7523.98
84.32	7714.69
84.33	7940.06
84.34	7437.3
84.35	7836.04
84.36	7107.91
84.37	7558.66
84.38	8182.77
84.39	8078.75
84.4	8564.17
84.41	7489.31
84.42	7194.59
84.43	7523.98
84.44	7177.26
84.45	8096.08
84.46	7732.02
84.47	7437.3
84.48	7662.68
84.49	7385.29
84.5	7281.28
84.51	7298.61
84.52	7628
84.53	7263.94
84.54	7350.62
84.55	7419.97
84.56	7211.93
84.57	7454.64
84.58	7905.38
84.59	7315.95
84.6	6830.53
84.61	7662.68
84.62	7437.3
84.63	7888.05
84.64	7385.29
84.65	7142.58
84.66	7662.68
84.67	7940.06
84.68	7489.31
84.69	7055.9
84.7	7957.39
84.71	7281.28
84.72	7680.01
84.73	7211.93
84.74	7263.94
84.75	7090.58
84.76	7281.28
84.77	7281.28
84.78	7610.67
84.79	7333.28
84.8	7575.99
84.81	7610.67
84.82	7246.6
84.83	7298.61
84.84	7680.01
84.85	7281.28
84.86	6865.2
84.87	6813.19
84.88	7350.62
84.89	7523.98
84.9	7870.71
84.91	7662.68
84.92	7367.96
84.93	7749.36
84.94	7593.33
84.95	7315.95
84.96	7471.98
84.97	7437.3
84.98	7177.26
84.99	7575.99
85	7541.32
85.01	7888.05
85.02	6951.88
85.03	7714.69
85.04	7281.28
85.05	7506.65
85.06	7177.26
85.07	7229.27
85.08	7038.57
85.09	7315.95
85.1	7836.04
85.11	7263.94
85.12	7853.38
85.13	7714.69
85.14	7125.25
85.15	7905.38
85.16	7229.27
85.17	7645.34
85.18	6986.56
85.19	7142.58
85.2	7593.33
85.21	7471.98
85.22	7246.6
85.23	7905.38
85.24	7680.01
85.25	7350.62
85.26	7749.36
85.27	7645.34
85.28	7125.25
85.29	7471.98
85.3	7523.98
85.31	8044.08
85.32	7038.57
85.33	7281.28
85.34	7558.66
85.35	7558.66
85.36	7992.07
85.37	7628
85.38	7281.28
85.39	7021.23
85.4	7766.69
85.41	7784.03
85.42	6986.56
85.43	7021.23
85.44	7281.28
85.45	7419.97
85.46	7628
85.47	7367.96
85.48	7142.58
85.49	7246.6
85.5	6986.56
85.51	7766.69
85.52	7402.63
85.53	6830.53
85.54	7107.91
85.55	7645.34
85.56	7523.98
85.57	7125.25
85.58	7714.69
85.59	7558.66
85.6	7575.99
85.61	7610.67
85.62	7333.28
85.63	7541.32
85.64	7229.27
85.65	7402.63
85.66	7350.62
85.67	7437.3
85.68	7506.65
85.69	7333.28
85.7	7003.89
85.71	7107.91
85.72	7801.37
85.73	7263.94
85.74	7333.28
85.75	6553.15
85.76	7263.94
85.77	6587.82
85.78	7090.58
85.79	6951.88
85.8	6986.56
85.81	7489.31
85.82	7281.28
85.83	7419.97
85.84	7714.69
85.85	7159.92
85.86	7350.62
85.87	7263.94
85.88	7610.67
85.89	7593.33
85.9	7367.96
85.91	7454.64
85.92	7333.28
85.93	6899.88
85.94	7211.93
85.95	7073.24
85.96	7194.59
85.97	7090.58
85.98	7766.69
85.99	7177.26
86	6743.85
86.01	6899.88
86.02	7350.62
86.03	7645.34
86.04	7506.65
86.05	7784.03
86.06	7523.98
86.07	7454.64
86.08	7038.57
86.09	7263.94
86.1	6449.13
86.11	7021.23
86.12	7281.28
86.13	7159.92
86.14	6917.21
86.15	7246.6
86.16	7246.6
86.17	6795.86
86.18	7194.59
86.19	6969.22
86.2	7662.68
86.21	6986.56
86.22	7298.61
86.23	7610.67
86.24	7350.62
86.25	7246.6
86.26	7350.62
86.27	6951.88
86.28	7489.31
86.29	7558.66
86.3	7454.64
86.31	7402.63
86.32	7090.58
86.33	6639.83
86.34	6813.19
86.35	7541.32
86.36	7090.58
86.37	7263.94
86.38	7385.29
86.39	7350.62
86.4	6951.88
86.41	6691.84
86.42	7194.59
86.43	7159.92
86.44	8009.4
86.45	7471.98
86.46	7090.58
86.47	6934.55
86.48	7471.98
86.49	7125.25
86.5	7419.97
86.51	6813.19
86.52	6674.5
86.53	7107.91
86.54	7038.57
86.55	7350.62
86.56	7055.9
86.57	7298.61
86.58	6414.46
86.59	6795.86
86.6	6726.51
86.61	6570.48
86.62	7107.91
86.63	6397.12
86.64	6934.55
86.65	7107.91
86.66	7055.9
86.67	6414.46
86.68	6709.18
86.69	7073.24
86.7	6986.56
86.71	6726.51
86.72	7506.65
86.73	7541.32
86.74	7090.58
86.75	7038.57
86.76	6882.54
86.77	6969.22
86.78	7593.33
86.79	7055.9
86.8	6258.43
86.81	6778.52
86.82	7090.58
86.83	6743.85
86.84	6986.56
86.85	7575.99
86.86	7038.57
86.87	6622.49
86.88	6761.18
86.89	7055.9
86.9	6518.48
86.91	7142.58
86.92	6986.56
86.93	7194.59
86.94	7662.68
86.95	7402.63
86.96	7523.98
86.97	7315.95
86.98	7090.58
86.99	6674.5
87	7766.69
87.01	6795.86
87.02	6657.17
87.03	6726.51
87.04	7021.23
87.05	7367.96
87.06	7298.61
87.07	6865.2
87.08	7038.57
87.09	7367.96
87.1	7333.28
87.11	7263.94
87.12	7437.3
87.13	7506.65
87.14	6899.88
87.15	6917.21
87.16	7107.91
87.17	7281.28
87.18	7367.96
87.19	6882.54
87.2	6813.19
87.21	7870.71
87.22	7177.26
87.23	7211.93
87.24	7246.6
87.25	7038.57
87.26	7506.65
87.27	7714.69
87.28	6674.5
87.29	6535.81
87.3	6466.47
87.31	6397.12
87.32	6518.48
87.33	6917.21
87.34	6882.54
87.35	6847.87
87.36	7073.24
87.37	7541.32
87.38	6154.41
87.39	6553.15
87.4	7003.89
87.41	6483.8
87.42	6466.47
87.43	6951.88
87.44	7870.71
87.45	6934.55
87.46	6605.16
87.47	7385.29
87.48	7229.27
87.49	7281.28
87.5	6865.2
87.51	6553.15
87.52	6518.48
87.53	7107.91
87.54	7211.93
87.55	6743.85
87.56	6882.54
87.57	7350.62
87.58	6934.55
87.59	6587.82
87.6	7229.27
87.61	6726.51
87.62	7194.59
87.63	7506.65
87.64	6951.88
87.65	6865.2
87.66	7298.61
87.67	6189.08
87.68	7125.25
87.69	7159.92
87.7	7055.9
87.71	7003.89
87.72	6587.82
87.73	7003.89
87.74	6865.2
87.75	6934.55
87.76	6917.21
87.77	7281.28
87.78	7003.89
87.79	6535.81
87.8	7055.9
87.81	7194.59
87.82	7107.91
87.83	6691.84
87.84	6605.16
87.85	6778.52
87.86	7575.99
87.87	6813.19
87.88	6865.2
87.89	7073.24
87.9	7281.28
87.91	7073.24
87.92	6553.15
87.93	6015.72
87.94	6483.8
87.95	6570.48
87.96	6483.8
87.97	6778.52
87.98	7211.93
87.99	6830.53
88	6813.19
88.01	6674.5
88.02	7177.26
88.03	6709.18
88.04	6917.21
88.05	6761.18
88.06	7281.28
88.07	6813.19
88.08	7003.89
88.09	6570.48
88.1	6691.84
88.11	6431.79
88.12	6830.53
88.13	7333.28
88.14	6622.49
88.15	6674.5
88.16	6570.48
88.17	7940.06
88.18	6691.84
88.19	6275.77
88.2	7263.94
88.21	6778.52
88.22	7021.23
88.23	6431.79
88.24	7333.28
88.25	7246.6
88.26	7107.91
88.27	7073.24
88.28	7125.25
88.29	6137.08
88.3	6951.88
88.31	7090.58
88.32	6501.14
88.33	6483.8
88.34	6917.21
88.35	6691.84
88.36	7315.95
88.37	7090.58
88.38	7073.24
88.39	6865.2
88.4	6899.88
88.41	7749.36
88.42	6882.54
88.43	7073.24
88.44	6778.52
88.45	6397.12
88.46	6622.49
88.47	6865.2
88.48	7177.26
88.49	6345.11
88.5	6882.54
88.51	7194.59
88.52	7021.23
88.53	6899.88
88.54	7298.61
88.55	7315.95
88.56	6466.47
88.57	7073.24
88.58	6951.88
88.59	7090.58
88.6	7558.66
88.61	6882.54
88.62	6899.88
88.63	6258.43
88.64	6518.48
88.65	6449.13
88.66	6414.46
88.67	6899.88
88.68	6171.75
88.69	7333.28
88.7	6899.88
88.71	7541.32
88.72	6570.48
88.73	7003.89
88.74	6483.8
88.75	6622.49
88.76	6813.19
88.77	6778.52
88.78	6882.54
88.79	6657.17
88.8	6743.85
88.81	7159.92
88.82	7194.59
88.83	6986.56
88.84	6969.22
88.85	6657.17
88.86	6674.5
88.87	7038.57
88.88	7350.62
88.89	7021.23
88.9	7003.89
88.91	6501.14
88.92	6015.72
88.93	6657.17
88.94	7246.6
88.95	6657.17
88.96	6587.82
88.97	7159.92
88.98	6899.88
88.99	6761.18
89	7055.9
89.01	6847.87
89.02	6518.48
89.03	7350.62
89.04	6934.55
89.05	6431.79
89.06	6934.55
89.07	7263.94
89.08	6882.54
89.09	6483.8
89.1	6345.11
89.11	6761.18
89.12	6674.5
89.13	6847.87
89.14	6483.8
89.15	6761.18
89.16	6379.78
89.17	7142.58
89.18	6726.51
89.19	6449.13
89.2	7177.26
89.21	6726.51
89.22	6431.79
89.23	6917.21
89.24	6483.8
89.25	6414.46
89.26	6986.56
89.27	6743.85
89.28	7246.6
89.29	6362.45
89.3	7107.91
89.31	6189.08
89.32	7055.9
89.33	6310.44
89.34	6293.1
89.35	6865.2
89.36	7055.9
89.37	7246.6
89.38	6761.18
89.39	6726.51
89.4	6622.49
89.41	5998.38
89.42	6570.48
89.43	6917.21
89.44	6362.45
89.45	6951.88
89.46	7090.58
89.47	7038.57
89.48	6813.19
89.49	6691.84
89.5	6743.85
89.51	5634.32
89.52	6501.14
89.53	7211.93
89.54	6310.44
89.55	6293.1
89.56	6761.18
89.57	7003.89
89.58	6639.83
89.59	6570.48
89.6	6882.54
89.61	7471.98
89.62	6674.5
89.63	7038.57
89.64	6813.19
89.65	7090.58
89.66	6917.21
89.67	7281.28
89.68	6466.47
89.69	6795.86
89.7	6137.08
89.71	6397.12
89.72	6709.18
89.73	6691.84
89.74	6986.56
89.75	6899.88
89.76	6778.52
89.77	6882.54
89.78	6795.86
89.79	7107.91
89.8	6951.88
89.81	7194.59
89.82	7628
89.83	6587.82
89.84	7367.96
89.85	7888.05
89.86	8182.77
89.87	7922.72
89.88	7697.35
89.89	7541.32
89.9	7489.31
89.91	8269.45
89.92	7818.7
89.93	7680.01
89.94	8026.74
89.95	8356.13
89.96	8668.19
89.97	9066.92
89.98	9604.35
89.99	10020.4
90	9448.32
