Sample	 
Comments	 
Filename	C:\Data\西出研\梅木\20211102オペ\LiFTFSI20wt_04_0004_0099-1_C_2θ.raw
Goniometer	SmartLab(In-plane)
Attachment	標準Zステージ
Monochromater	None
X	0
Y	0
Z	0.01716
ScanningMode	2Theta
ScanningType	Continuos Scanning
X-Ray	40kV/30mA
入射スリット	0.300mm
受光スリット1	20.000mm
受光スリット2	20.000mm
None	
Start	5
Stop	60
Step	0.02
Speed	21.6746
Theta	0
5	6953.93
5.02	6357.88
5.04	7206.8
5.06	6195.32
5.08	6971.99
5.1	6845.55
5.12	6701.06
5.14	6809.43
5.16	6646.87
5.18	6375.94
5.2	6809.43
5.22	6592.68
5.24	6177.25
5.26	6827.49
5.28	6448.19
5.3	6159.19
5.32	6917.8
5.34	6917.8
5.36	6917.8
5.38	6827.49
5.4	6646.87
5.42	7008.11
5.44	6430.12
5.46	6430.12
5.48	6574.62
5.5	6773.31
5.52	6520.44
5.54	5816.01
5.56	6412.06
5.58	5761.82
5.6	6791.37
5.62	6701.06
5.64	5870.2
5.66	6664.93
5.68	6953.93
5.7	6303.69
5.72	6773.31
5.74	6917.8
5.76	6159.19
5.78	6430.12
5.8	6357.88
5.82	7080.36
5.84	6339.81
5.86	6701.06
5.88	6394
5.9	6285.63
5.92	6881.68
5.94	6285.63
5.96	6050.82
5.98	6068.88
6	6773.31
6.02	5797.95
6.04	6195.32
6.06	6267.56
6.08	6755.24
6.1	6412.06
6.12	5996.63
6.14	6466.25
6.16	6394
6.18	6375.94
6.2	6430.12
6.22	6321.75
6.24	6195.32
6.26	5707.64
6.28	5852.14
6.3	6249.5
6.32	5996.63
6.34	5960.51
6.36	6123.07
6.38	6394
6.4	6231.44
6.42	5653.45
6.44	5635.39
6.46	5274.15
6.48	6123.07
6.5	6592.68
6.52	5906.32
6.54	6159.19
6.56	5834.07
6.58	6339.81
6.6	5816.01
6.62	5346.4
6.64	5761.82
6.66	5617.33
6.68	5779.89
6.7	5743.76
6.72	6105.01
6.74	6484.31
6.76	5707.64
6.78	5472.83
6.8	5527.02
6.82	5906.32
6.84	5274.15
6.86	5978.57
6.88	6339.81
6.9	6394
6.92	6141.13
6.94	6086.94
6.96	5978.57
6.98	5743.76
7	5328.33
7.02	5924.38
7.04	5888.26
7.06	5725.7
7.08	5888.26
7.1	6303.69
7.12	5743.76
7.14	5436.71
7.16	5960.51
7.18	5310.27
7.2	5635.39
7.22	6177.25
7.24	5653.45
7.26	5328.33
7.28	5147.71
7.3	5346.4
7.32	5292.21
7.34	5418.64
7.36	5689.58
7.38	5418.64
7.4	5201.9
7.42	6141.13
7.44	5527.02
7.46	5238.02
7.48	5400.58
7.5	5924.38
7.52	6032.76
7.54	5256.08
7.56	6141.13
7.58	5834.07
7.6	5436.71
7.62	5888.26
7.64	5545.08
7.66	6249.5
7.68	5545.08
7.7	5653.45
7.72	5545.08
7.74	5364.46
7.76	5400.58
7.78	5093.53
7.8	5563.14
7.82	4949.03
7.84	5382.52
7.86	5490.89
7.88	5617.33
7.9	5256.08
7.92	5310.27
7.94	5942.45
7.96	5454.77
7.98	6105.01
8	6014.69
8.02	6357.88
8.04	5364.46
8.06	5599.27
8.08	6231.44
8.1	5906.32
8.12	5707.64
8.14	5761.82
8.16	5545.08
8.18	5689.58
8.2	5761.82
8.22	5996.63
8.24	5870.2
8.26	5924.38
8.28	5707.64
8.3	5256.08
8.32	5418.64
8.34	5093.53
8.36	5382.52
8.38	5888.26
8.4	5617.33
8.42	5382.52
8.44	5219.96
8.46	5292.21
8.48	5274.15
8.5	5328.33
8.52	5346.4
8.54	5852.14
8.56	5653.45
8.58	5454.77
8.6	5599.27
8.62	5400.58
8.64	5527.02
8.66	5454.77
8.68	5725.7
8.7	5653.45
8.72	5689.58
8.74	6123.07
8.76	5581.2
8.78	5364.46
8.8	5183.84
8.82	5382.52
8.84	5436.71
8.86	5653.45
8.88	5057.4
8.9	5581.2
8.92	5581.2
8.94	5978.57
8.96	5039.34
8.98	4967.09
9	5436.71
9.02	5490.89
9.04	5490.89
9.06	5743.76
9.08	5201.9
9.1	5219.96
9.12	5472.83
9.14	5256.08
9.16	5075.46
9.18	5382.52
9.2	5653.45
9.22	4930.97
9.24	5183.84
9.26	5761.82
9.28	5472.83
9.3	5310.27
9.32	5274.15
9.34	5238.02
9.36	5310.27
9.38	5816.01
9.4	5653.45
9.42	5707.64
9.44	5039.34
9.46	5563.14
9.48	5888.26
9.5	5364.46
9.52	5292.21
9.54	5364.46
9.56	5436.71
9.58	5201.9
9.6	5256.08
9.62	5075.46
9.64	4967.09
9.66	5057.4
9.68	5490.89
9.7	5256.08
9.72	5328.33
9.74	5003.21
9.76	5454.77
9.78	5238.02
9.8	6177.25
9.82	5508.95
9.84	5274.15
9.86	5057.4
9.88	5274.15
9.9	5201.9
9.92	5147.71
9.94	5274.15
9.96	5545.08
9.98	5003.21
10	5201.9
10.02	5003.21
10.04	5581.2
10.06	5346.4
10.08	5201.9
10.1	4930.97
10.12	5599.27
10.14	5093.53
10.16	5219.96
10.18	5527.02
10.2	4985.15
10.22	5292.21
10.24	5147.71
10.26	5382.52
10.28	5165.77
10.3	5075.46
10.32	5599.27
10.34	5906.32
10.36	5382.52
10.38	5581.2
10.4	4696.16
10.42	4967.09
10.44	5129.65
10.46	5003.21
10.48	5075.46
10.5	4894.84
10.52	4949.03
10.54	5563.14
10.56	5003.21
10.58	4930.97
10.6	5201.9
10.62	5256.08
10.64	5454.77
10.66	5490.89
10.68	5527.02
10.7	5256.08
10.72	5653.45
10.74	5779.89
10.76	5581.2
10.78	5292.21
10.8	5527.02
10.82	5003.21
10.84	5382.52
10.86	5201.9
10.88	5039.34
10.9	5400.58
10.92	5436.71
10.94	5743.76
10.96	5599.27
10.98	5021.28
11	5274.15
11.02	5400.58
11.04	5147.71
11.06	5472.83
11.08	5256.08
11.1	5454.77
11.12	5256.08
11.14	5924.38
11.16	5400.58
11.18	5274.15
11.2	5400.58
11.22	5364.46
11.24	5238.02
11.26	5725.7
11.28	5599.27
11.3	5093.53
11.32	5003.21
11.34	5418.64
11.36	5725.7
11.38	5346.4
11.4	5454.77
11.42	5364.46
11.44	5328.33
11.46	5310.27
11.48	5328.33
11.5	5057.4
11.52	5310.27
11.54	6068.88
11.56	5328.33
11.58	5653.45
11.6	4912.9
11.62	5545.08
11.64	5888.26
11.66	5129.65
11.68	5256.08
11.7	4985.15
11.72	5454.77
11.74	5581.2
11.76	4858.72
11.78	5165.77
11.8	4714.22
11.82	5328.33
11.84	5418.64
11.86	5671.51
11.88	4804.53
11.9	4858.72
11.92	5671.51
11.94	5779.89
11.96	5617.33
11.98	5635.39
12	5219.96
12.02	5256.08
12.04	5653.45
12.06	5436.71
12.08	5292.21
12.1	5797.95
12.12	4623.91
12.14	5364.46
12.16	5328.33
12.18	5328.33
12.2	5057.4
12.22	5219.96
12.24	5599.27
12.26	4894.84
12.28	4804.53
12.3	5165.77
12.32	5725.7
12.34	5364.46
12.36	5689.58
12.38	5707.64
12.4	4876.78
12.42	5039.34
12.44	5292.21
12.46	4786.47
12.48	4100.11
12.5	5418.64
12.52	5021.28
12.54	5111.59
12.56	5219.96
12.58	5508.95
12.6	5147.71
12.62	5725.7
12.64	5201.9
12.66	5635.39
12.68	5617.33
12.7	5761.82
12.72	5364.46
12.74	5292.21
12.76	5292.21
12.78	6141.13
12.8	5111.59
12.82	5238.02
12.84	5635.39
12.86	5364.46
12.88	5292.21
12.9	5490.89
12.92	5310.27
12.94	5508.95
12.96	5508.95
12.98	4949.03
13	5653.45
13.02	5527.02
13.04	5238.02
13.06	5960.51
13.08	5003.21
13.1	4822.59
13.12	5328.33
13.14	5201.9
13.16	5346.4
13.18	4876.78
13.2	5328.33
13.22	5274.15
13.24	4858.72
13.26	5581.2
13.28	4858.72
13.3	5292.21
13.32	5039.34
13.34	5039.34
13.36	5310.27
13.38	5671.51
13.4	4750.34
13.42	5328.33
13.44	4768.41
13.46	5527.02
13.48	5219.96
13.5	5219.96
13.52	5219.96
13.54	4876.78
13.56	5093.53
13.58	5364.46
13.6	5201.9
13.62	5129.65
13.64	5346.4
13.66	5527.02
13.68	5382.52
13.7	5310.27
13.72	5364.46
13.74	5183.84
13.76	5256.08
13.78	4876.78
13.8	5472.83
13.82	5870.2
13.84	4912.9
13.86	5219.96
13.88	5436.71
13.9	5256.08
13.92	5346.4
13.94	5165.77
13.96	5346.4
13.98	5075.46
14	5364.46
14.02	5364.46
14.04	5129.65
14.06	5310.27
14.08	5852.14
14.1	5527.02
14.12	5057.4
14.14	5472.83
14.16	5003.21
14.18	4858.72
14.2	4949.03
14.22	5219.96
14.24	5256.08
14.26	5671.51
14.28	5201.9
14.3	4858.72
14.32	5075.46
14.34	5472.83
14.36	5310.27
14.38	4930.97
14.4	5490.89
14.42	5545.08
14.44	4804.53
14.46	4660.03
14.48	5545.08
14.5	5653.45
14.52	5527.02
14.54	4967.09
14.56	5147.71
14.58	4822.59
14.6	5364.46
14.62	5617.33
14.64	5545.08
14.66	5545.08
14.68	4840.66
14.7	4533.6
14.72	5545.08
14.74	5382.52
14.76	5707.64
14.78	5021.28
14.8	4967.09
14.82	5292.21
14.84	5219.96
14.86	5201.9
14.88	4930.97
14.9	4894.84
14.92	4551.66
14.94	5274.15
14.96	4876.78
14.98	4840.66
15	5075.46
15.02	4876.78
15.04	4515.54
15.06	5996.63
15.08	5599.27
15.1	4858.72
15.12	5111.59
15.14	5093.53
15.16	5418.64
15.18	5219.96
15.2	5274.15
15.22	5292.21
15.24	4768.41
15.26	5219.96
15.28	4732.28
15.3	4930.97
15.32	5400.58
15.34	4840.66
15.36	4786.47
15.38	4930.97
15.4	4840.66
15.42	4949.03
15.44	5129.65
15.46	4967.09
15.48	5129.65
15.5	4985.15
15.52	4804.53
15.54	4930.97
15.56	5274.15
15.58	4804.53
15.6	5400.58
15.62	5436.71
15.64	4840.66
15.66	5075.46
15.68	5256.08
15.7	5346.4
15.72	5057.4
15.74	4949.03
15.76	4858.72
15.78	5201.9
15.8	5147.71
15.82	4822.59
15.84	5201.9
15.86	4985.15
15.88	4985.15
15.9	4894.84
15.92	5075.46
15.94	4551.66
15.96	4949.03
15.98	5508.95
16	5075.46
16.02	5003.21
16.04	4786.47
16.06	5274.15
16.08	4894.84
16.1	4930.97
16.12	4533.6
16.14	5129.65
16.16	5093.53
16.18	5201.9
16.2	4804.53
16.22	4768.41
16.24	4641.97
16.26	5021.28
16.28	5075.46
16.3	4605.85
16.32	5147.71
16.34	5256.08
16.36	5201.9
16.38	5057.4
16.4	4804.53
16.42	5725.7
16.44	4949.03
16.46	5093.53
16.48	5021.28
16.5	5003.21
16.52	4858.72
16.54	5075.46
16.56	5111.59
16.58	4714.22
16.6	4858.72
16.62	4949.03
16.64	4985.15
16.66	4912.9
16.68	5129.65
16.7	4804.53
16.72	4985.15
16.74	5219.96
16.76	4786.47
16.78	4551.66
16.8	4714.22
16.82	4858.72
16.84	5111.59
16.86	5256.08
16.88	4985.15
16.9	5436.71
16.92	5075.46
16.94	4858.72
16.96	4858.72
16.98	4912.9
17	5707.64
17.02	5689.58
17.04	4660.03
17.06	4930.97
17.08	4768.41
17.1	5093.53
17.12	5238.02
17.14	4678.1
17.16	5057.4
17.18	5021.28
17.2	5527.02
17.22	5418.64
17.24	4804.53
17.26	4967.09
17.28	4804.53
17.3	5147.71
17.32	5075.46
17.34	4569.72
17.36	4768.41
17.38	4822.59
17.4	4930.97
17.42	4912.9
17.44	4244.6
17.46	4425.23
17.48	5147.71
17.5	4696.16
17.52	4172.36
17.54	4587.79
17.56	5021.28
17.58	4912.9
17.6	5292.21
17.62	4768.41
17.64	5039.34
17.66	4804.53
17.68	4641.97
17.7	4605.85
17.72	5527.02
17.74	5238.02
17.76	4750.34
17.78	5129.65
17.8	4750.34
17.82	4696.16
17.84	5057.4
17.86	4641.97
17.88	5057.4
17.9	4407.16
17.92	4804.53
17.94	4660.03
17.96	4732.28
17.98	4678.1
18	5111.59
18.02	5075.46
18.04	4930.97
18.06	4840.66
18.08	4949.03
18.1	5527.02
18.12	5075.46
18.14	5418.64
18.16	5129.65
18.18	4786.47
18.2	5238.02
18.22	5292.21
18.24	4768.41
18.26	4732.28
18.28	4587.79
18.3	5382.52
18.32	4840.66
18.34	5093.53
18.36	4660.03
18.38	4551.66
18.4	5111.59
18.42	5003.21
18.44	4641.97
18.46	4822.59
18.48	5093.53
18.5	4678.1
18.52	4768.41
18.54	4551.66
18.56	4822.59
18.58	4840.66
18.6	4696.16
18.62	4587.79
18.64	5003.21
18.66	4840.66
18.68	4407.16
18.7	4750.34
18.72	5129.65
18.74	4858.72
18.76	5093.53
18.78	4605.85
18.8	4949.03
18.82	4334.92
18.84	5003.21
18.86	4623.91
18.88	4768.41
18.9	4389.1
18.92	4623.91
18.94	4876.78
18.96	5129.65
18.98	4894.84
19	4497.47
19.02	5021.28
19.04	4479.41
19.06	5111.59
19.08	4587.79
19.1	4551.66
19.12	4894.84
19.14	5021.28
19.16	5003.21
19.18	4750.34
19.2	4840.66
19.22	5057.4
19.24	5093.53
19.26	4876.78
19.28	4750.34
19.3	4569.72
19.32	4822.59
19.34	4641.97
19.36	4533.6
19.38	4714.22
19.4	4660.03
19.42	5075.46
19.44	5201.9
19.46	5346.4
19.48	5075.46
19.5	4840.66
19.52	4678.1
19.54	4515.54
19.56	4858.72
19.58	4623.91
19.6	4515.54
19.62	4533.6
19.64	4479.41
19.66	5075.46
19.68	4280.73
19.7	4063.98
19.72	4479.41
19.74	4443.29
19.76	4371.04
19.78	4533.6
19.8	4298.79
19.82	4425.23
19.84	4082.05
19.86	4641.97
19.88	4371.04
19.9	4425.23
19.92	4876.78
19.94	4244.6
19.96	4497.47
19.98	3919.49
20	4714.22
20.02	4587.79
20.04	4208.48
20.06	4533.6
20.08	4912.9
20.1	4822.59
20.12	3955.61
20.14	4136.23
20.16	4226.54
20.18	4768.41
20.2	4407.16
20.22	4045.92
20.24	4551.66
20.26	4226.54
20.28	4262.67
20.3	3883.36
20.32	4985.15
20.34	4587.79
20.36	4334.92
20.38	4352.98
20.4	4154.29
20.42	4371.04
20.44	4298.79
20.46	4732.28
20.48	4063.98
20.5	4027.86
20.52	4118.17
20.54	4208.48
20.56	4244.6
20.58	4768.41
20.6	4497.47
20.62	4407.16
20.64	4262.67
20.66	4298.79
20.68	4082.05
20.7	4515.54
20.72	4262.67
20.74	4587.79
20.76	4425.23
20.78	4732.28
20.8	4407.16
20.82	4587.79
20.84	4967.09
20.86	4461.35
20.88	4172.36
20.9	4533.6
20.92	4334.92
20.94	4714.22
20.96	4371.04
20.98	4316.85
21	4443.29
21.02	4226.54
21.04	4208.48
21.06	4280.73
21.08	4190.42
21.1	4352.98
21.12	3919.49
21.14	4551.66
21.16	5057.4
21.18	4280.73
21.2	3883.36
21.22	4045.92
21.24	4045.92
21.26	4479.41
21.28	4515.54
21.3	3955.61
21.32	4100.11
21.34	4660.03
21.36	4172.36
21.38	4515.54
21.4	4172.36
21.42	4497.47
21.44	4334.92
21.46	4298.79
21.48	4479.41
21.5	4244.6
21.52	4172.36
21.54	3648.55
21.56	4009.8
21.58	4172.36
21.6	3991.73
21.62	4533.6
21.64	4515.54
21.66	4082.05
21.68	4352.98
21.7	3901.42
21.72	4136.23
21.74	3811.11
21.76	4298.79
21.78	4894.84
21.8	4118.17
21.82	4389.1
21.84	4082.05
21.86	4262.67
21.88	4190.42
21.9	3865.3
21.92	4352.98
21.94	3901.42
21.96	4208.48
21.98	4226.54
22	4172.36
22.02	3901.42
22.04	3720.8
22.06	4244.6
22.08	3973.67
22.1	3811.11
22.12	4515.54
22.14	4136.23
22.16	3793.05
22.18	4118.17
22.2	3937.55
22.22	4280.73
22.24	4172.36
22.26	4262.67
22.28	4316.85
22.3	4154.29
22.32	3973.67
22.34	3901.42
22.36	4100.11
22.38	3901.42
22.4	3648.55
22.42	3955.61
22.44	4316.85
22.46	4425.23
22.48	3991.73
22.5	4154.29
22.52	3955.61
22.54	3865.3
22.56	3829.18
22.58	3901.42
22.6	3558.24
22.62	3865.3
22.64	3756.93
22.66	4027.86
22.68	3847.24
22.7	4316.85
22.72	3088.63
22.74	4082.05
22.76	4063.98
22.78	3865.3
22.8	3720.8
22.82	3774.99
22.84	3504.06
22.86	3594.37
22.88	4045.92
22.9	4208.48
22.92	4569.72
22.94	3901.42
22.96	3756.93
22.98	4352.98
23	3829.18
23.02	3666.62
23.04	4027.86
23.06	4226.54
23.08	4027.86
23.1	3865.3
23.12	3829.18
23.14	3702.74
23.16	4136.23
23.18	3883.36
23.2	4063.98
23.22	3720.8
23.24	3684.68
23.26	4027.86
23.28	3865.3
23.3	4082.05
23.32	3323.44
23.34	3756.93
23.36	4371.04
23.38	3847.24
23.4	3612.43
23.42	4063.98
23.44	3612.43
23.46	3702.74
23.48	4082.05
23.5	4045.92
23.52	3106.69
23.54	3576.31
23.56	3630.49
23.58	3901.42
23.6	3937.55
23.62	3558.24
23.64	4045.92
23.66	3648.55
23.68	3052.5
23.7	3774.99
23.72	3684.68
23.74	3702.74
23.76	4118.17
23.78	3540.18
23.8	3648.55
23.82	3413.75
23.84	3305.37
23.86	3522.12
23.88	3756.93
23.9	3811.11
23.92	3540.18
23.94	3811.11
23.96	3793.05
23.98	3305.37
24	3720.8
24.02	3431.81
24.04	3467.93
24.06	3594.37
24.08	3774.99
24.1	3449.87
24.12	3648.55
24.14	3630.49
24.16	3485.99
24.18	3485.99
24.2	3648.55
24.22	3323.44
24.24	3377.62
24.26	3522.12
24.28	3142.81
24.3	3305.37
24.32	3937.55
24.34	3467.93
24.36	3720.8
24.38	3919.49
24.4	3540.18
24.42	3738.86
24.44	3323.44
24.46	3287.31
24.48	3413.75
24.5	3594.37
24.52	3612.43
24.54	3829.18
24.56	3558.24
24.58	3305.37
24.6	3558.24
24.62	3540.18
24.64	3395.68
24.66	3485.99
24.68	3576.31
24.7	3648.55
24.72	3287.31
24.74	3467.93
24.76	3630.49
24.78	3215.06
24.8	3431.81
24.82	3865.3
24.84	3251.19
24.86	3738.86
24.88	3467.93
24.9	3160.88
24.92	3504.06
24.94	3973.67
24.96	3540.18
24.98	3178.94
25	3124.75
25.02	3215.06
25.04	2799.63
25.06	3413.75
25.08	3251.19
25.1	3160.88
25.12	3233.12
25.14	3070.56
25.16	2926.07
25.18	3305.37
25.2	3485.99
25.22	3251.19
25.24	3088.63
25.26	3251.19
25.28	3251.19
25.3	2944.13
25.32	3215.06
25.34	3052.5
25.36	2980.25
25.38	2871.88
25.4	3178.94
25.42	2926.07
25.44	2926.07
25.46	3178.94
25.48	2799.63
25.5	2763.51
25.52	3034.44
25.54	3341.5
25.56	3016.38
25.58	3160.88
25.6	3305.37
25.62	3341.5
25.64	3197
25.66	3197
25.68	3341.5
25.7	3142.81
25.72	3269.25
25.74	3088.63
25.76	2781.57
25.78	3359.56
25.8	2709.32
25.82	2817.69
25.84	3377.62
25.86	2962.19
25.88	3178.94
25.9	2926.07
25.92	3215.06
25.94	3485.99
25.96	3540.18
25.98	3052.5
26	2962.19
26.02	3016.38
26.04	3034.44
26.06	2980.25
26.08	3106.69
26.1	2637.07
26.12	3124.75
26.14	3251.19
26.16	3088.63
26.18	3034.44
26.2	2799.63
26.22	3504.06
26.24	3178.94
26.26	2727.38
26.28	3106.69
26.3	2709.32
26.32	2582.89
26.34	2149.4
26.36	2962.19
26.38	2600.95
26.4	2709.32
26.42	2962.19
26.44	2799.63
26.46	3215.06
26.48	2637.07
26.5	2835.76
26.52	2709.32
26.54	2727.38
26.56	2510.64
26.58	2637.07
26.6	3052.5
26.62	2908.01
26.64	2655.14
26.66	2745.45
26.68	3106.69
26.7	2330.02
26.72	2709.32
26.74	2077.15
26.76	2564.82
26.78	2799.63
26.8	2311.95
26.82	2655.14
26.84	2619.01
26.86	2998.32
26.88	3016.38
26.9	2510.64
26.92	2908.01
26.94	2546.76
26.96	2619.01
26.98	3233.12
27	2655.14
27.02	2727.38
27.04	2510.64
27.06	2510.64
27.08	2564.82
27.1	2673.2
27.12	2709.32
27.14	2673.2
27.16	2745.45
27.18	2528.7
27.2	2763.51
27.22	2564.82
27.24	2492.58
27.26	2637.07
27.28	2673.2
27.3	2257.77
27.32	2962.19
27.34	2817.69
27.36	2185.52
27.38	2474.51
27.4	2619.01
27.42	2637.07
27.44	2655.14
27.46	2203.58
27.48	2474.51
27.5	2673.2
27.52	2203.58
27.54	2330.02
27.56	2420.33
27.58	2384.2
27.6	2474.51
27.62	2637.07
27.64	2456.45
27.66	2853.82
27.68	2438.39
27.7	2582.89
27.72	2438.39
27.74	2384.2
27.76	2492.58
27.78	2438.39
27.8	2203.58
27.82	2709.32
27.84	2619.01
27.86	2564.82
27.88	2059.08
27.9	1932.65
27.92	2600.95
27.94	2384.2
27.96	2564.82
27.98	2980.25
28	3016.38
28.02	2330.02
28.04	2600.95
28.06	2131.33
28.08	2564.82
28.1	2510.64
28.12	2510.64
28.14	2637.07
28.16	2293.89
28.18	2149.4
28.2	2293.89
28.22	2293.89
28.24	2185.52
28.26	2348.08
28.28	2275.83
28.3	2203.58
28.32	2275.83
28.34	2275.83
28.36	2384.2
28.38	2203.58
28.4	2311.95
28.42	2077.15
28.44	2149.4
28.46	2239.71
28.48	2311.95
28.5	2004.9
28.52	2384.2
28.54	2113.27
28.56	2311.95
28.58	2384.2
28.6	2384.2
28.62	2384.2
28.64	2275.83
28.66	2113.27
28.68	2438.39
28.7	2059.08
28.72	2185.52
28.74	2600.95
28.76	2348.08
28.78	2185.52
28.8	2384.2
28.82	2041.02
28.84	2221.64
28.86	2420.33
28.88	2239.71
28.9	2637.07
28.92	2239.71
28.94	2366.14
28.96	2167.46
28.98	2077.15
29	2330.02
29.02	2402.27
29.04	2185.52
29.06	2149.4
29.08	2095.21
29.1	2420.33
29.12	1824.28
29.14	2149.4
29.16	2492.58
29.18	2293.89
29.2	2022.96
29.22	2546.76
29.24	2330.02
29.26	2022.96
29.28	1499.16
29.3	2113.27
29.32	2293.89
29.34	2077.15
29.36	1535.28
29.38	2077.15
29.4	1860.4
29.42	2456.45
29.44	2239.71
29.46	2022.96
29.48	2041.02
29.5	2131.33
29.52	2275.83
29.54	2113.27
29.56	2095.21
29.58	2131.33
29.6	2059.08
29.62	2330.02
29.64	1824.28
29.66	2203.58
29.68	2582.89
29.7	2402.27
29.72	2311.95
29.74	1950.71
29.76	2275.83
29.78	2059.08
29.8	1968.77
29.82	2022.96
29.84	2293.89
29.86	2004.9
29.88	2004.9
29.9	2366.14
29.92	1932.65
29.94	2041.02
29.96	2113.27
29.98	2113.27
30	2311.95
30.02	1986.84
30.04	1842.34
30.06	2022.96
30.08	1788.15
30.1	1824.28
30.12	2059.08
30.14	2221.64
30.16	2004.9
30.18	2239.71
30.2	2239.71
30.22	1932.65
30.24	2077.15
30.26	1896.53
30.28	1950.71
30.3	1896.53
30.32	2077.15
30.34	1950.71
30.36	1752.03
30.38	2167.46
30.4	1860.4
30.42	1806.21
30.44	1752.03
30.46	2022.96
30.48	2293.89
30.5	2185.52
30.52	1914.59
30.54	1788.15
30.56	1950.71
30.58	1896.53
30.6	2239.71
30.62	2239.71
30.64	1986.84
30.66	1824.28
30.68	2059.08
30.7	1752.03
30.72	2059.08
30.74	2059.08
30.76	1986.84
30.78	1914.59
30.8	1950.71
30.82	1932.65
30.84	1788.15
30.86	2149.4
30.88	1914.59
30.9	1806.21
30.92	1914.59
30.94	1842.34
30.96	1932.65
30.98	1625.59
31	1733.97
31.02	2275.83
31.04	2149.4
31.06	1715.9
31.08	1842.34
31.1	1968.77
31.12	1733.97
31.14	2185.52
31.16	2203.58
31.18	2167.46
31.2	1788.15
31.22	1950.71
31.24	2131.33
31.26	1950.71
31.28	1752.03
31.3	1842.34
31.32	1806.21
31.34	1986.84
31.36	2149.4
31.38	1697.84
31.4	1697.84
31.42	1932.65
31.44	1860.4
31.46	2004.9
31.48	1842.34
31.5	1607.53
31.52	1589.47
31.54	1824.28
31.56	1878.46
31.58	1860.4
31.6	1824.28
31.62	1806.21
31.64	1589.47
31.66	2149.4
31.68	2004.9
31.7	1752.03
31.72	2131.33
31.74	1950.71
31.76	1643.66
31.78	1463.03
31.8	1733.97
31.82	1950.71
31.84	2167.46
31.86	1535.28
31.88	1914.59
31.9	2041.02
31.92	1661.72
31.94	1752.03
31.96	1697.84
31.98	1697.84
32	1752.03
32.02	1842.34
32.04	1788.15
32.06	1733.97
32.08	1914.59
32.1	1824.28
32.12	1950.71
32.14	1444.97
32.16	1697.84
32.18	1643.66
32.2	1752.03
32.22	1481.1
32.24	1788.15
32.26	1733.97
32.28	1643.66
32.3	1697.84
32.32	1499.16
32.34	1878.46
32.36	1932.65
32.38	1824.28
32.4	1806.21
32.42	2022.96
32.44	2077.15
32.46	1788.15
32.48	1752.03
32.5	1463.03
32.52	1860.4
32.54	1788.15
32.56	1553.34
32.58	1733.97
32.6	1589.47
32.62	1571.41
32.64	1607.53
32.66	1806.21
32.68	1571.41
32.7	1481.1
32.72	1661.72
32.74	1752.03
32.76	1968.77
32.78	1697.84
32.8	1607.53
32.82	1824.28
32.84	1715.9
32.86	1914.59
32.88	1679.78
32.9	1788.15
32.92	1517.22
32.94	1553.34
32.96	1661.72
32.98	1896.53
33	2167.46
33.02	1842.34
33.04	1733.97
33.06	1463.03
33.08	1661.72
33.1	1896.53
33.12	1661.72
33.14	1481.1
33.16	1679.78
33.18	1733.97
33.2	1824.28
33.22	1643.66
33.24	1715.9
33.26	1788.15
33.28	1607.53
33.3	1950.71
33.32	1824.28
33.34	1878.46
33.36	1788.15
33.38	1806.21
33.4	1896.53
33.42	1914.59
33.44	2113.27
33.46	1589.47
33.48	1535.28
33.5	1824.28
33.52	1625.59
33.54	1752.03
33.56	1914.59
33.58	1661.72
33.6	1950.71
33.62	1679.78
33.64	2004.9
33.66	1481.1
33.68	1733.97
33.7	1697.84
33.72	1661.72
33.74	1715.9
33.76	1824.28
33.78	1679.78
33.8	1499.16
33.82	1192.1
33.84	1408.85
33.86	1119.85
33.88	1444.97
33.9	1625.59
33.92	1463.03
33.94	1752.03
33.96	1661.72
33.98	1607.53
34	1914.59
34.02	1733.97
34.04	1571.41
34.06	1481.1
34.08	1282.41
34.1	1625.59
34.12	1535.28
34.14	1661.72
34.16	1715.9
34.18	1914.59
34.2	1788.15
34.22	1643.66
34.24	1914.59
34.26	1372.72
34.28	1426.91
34.3	1535.28
34.32	1589.47
34.34	1625.59
34.36	1661.72
34.38	1444.97
34.4	1679.78
34.42	1625.59
34.44	1715.9
34.46	1679.78
34.48	1372.72
34.5	1535.28
34.52	1535.28
34.54	1661.72
34.56	1733.97
34.58	1499.16
34.6	1643.66
34.62	1643.66
34.64	1372.72
34.66	1318.54
34.68	1697.84
34.7	1481.1
34.72	1499.16
34.74	1589.47
34.76	1354.66
34.78	1300.47
34.8	1535.28
34.82	1444.97
34.84	1733.97
34.86	1481.1
34.88	1679.78
34.9	1499.16
34.92	1643.66
34.94	1426.91
34.96	1697.84
34.98	1408.85
35	1372.72
35.02	1679.78
35.04	1589.47
35.06	1878.46
35.08	1390.79
35.1	1408.85
35.12	1372.72
35.14	1553.34
35.16	1607.53
35.18	1336.6
35.2	1625.59
35.22	1390.79
35.24	1390.79
35.26	1589.47
35.28	1390.79
35.3	1733.97
35.32	1354.66
35.34	1553.34
35.36	1318.54
35.38	1697.84
35.4	1354.66
35.42	1282.41
35.44	1499.16
35.46	1481.1
35.48	1228.23
35.5	1390.79
35.52	1535.28
35.54	1246.29
35.56	1137.92
35.58	1625.59
35.6	1589.47
35.62	1824.28
35.64	1408.85
35.66	1174.04
35.68	1607.53
35.7	1697.84
35.72	1535.28
35.74	1499.16
35.76	1517.22
35.78	1047.6
35.8	1444.97
35.82	1426.91
35.84	1354.66
35.86	1463.03
35.88	1715.9
35.9	993.418
35.92	1499.16
35.94	1463.03
35.96	1625.59
35.98	1336.6
36	1318.54
36.02	1481.1
36.04	1589.47
36.06	1571.41
36.08	1372.72
36.1	1336.6
36.12	1354.66
36.14	1336.6
36.16	1336.6
36.18	1463.03
36.2	1390.79
36.22	1499.16
36.24	1101.79
36.26	1535.28
36.28	1643.66
36.3	1408.85
36.32	1300.47
36.34	1625.59
36.36	1625.59
36.38	1372.72
36.4	1553.34
36.42	1354.66
36.44	1336.6
36.46	1607.53
36.48	1444.97
36.5	1372.72
36.52	1390.79
36.54	1119.85
36.56	1390.79
36.58	1643.66
36.6	1137.92
36.62	1499.16
36.64	1517.22
36.66	1553.34
36.68	1336.6
36.7	1246.29
36.72	1661.72
36.74	1535.28
36.76	1300.47
36.78	1137.92
36.8	1408.85
36.82	1535.28
36.84	1553.34
36.86	1264.35
36.88	1715.9
36.9	1444.97
36.92	1336.6
36.94	1354.66
36.96	1264.35
36.98	1643.66
37	1264.35
37.02	1264.35
37.04	1246.29
37.06	1029.54
37.08	1463.03
37.1	1354.66
37.12	1553.34
37.14	1354.66
37.16	1300.47
37.18	1155.98
37.2	1318.54
37.22	1318.54
37.24	1499.16
37.26	1318.54
37.28	1318.54
37.3	993.418
37.32	1083.73
37.34	1336.6
37.36	1390.79
37.38	1643.66
37.4	1264.35
37.42	1607.53
37.44	1029.54
37.46	1463.03
37.48	1137.92
37.5	1210.16
37.52	1246.29
37.54	1282.41
37.56	1246.29
37.58	1083.73
37.6	1390.79
37.62	1282.41
37.64	1300.47
37.66	1408.85
37.68	1426.91
37.7	1354.66
37.72	1282.41
37.74	1210.16
37.76	1264.35
37.78	1336.6
37.8	1408.85
37.82	1354.66
37.84	1426.91
37.86	1372.72
37.88	1463.03
37.9	1336.6
37.92	1517.22
37.94	1228.23
37.96	1390.79
37.98	1228.23
38	1390.79
38.02	1336.6
38.04	1228.23
38.06	1155.98
38.08	1336.6
38.1	1463.03
38.12	1264.35
38.14	1264.35
38.16	1607.53
38.18	1246.29
38.2	1318.54
38.22	1390.79
38.24	1318.54
38.26	1390.79
38.28	1282.41
38.3	1228.23
38.32	1553.34
38.34	1210.16
38.36	1155.98
38.38	1282.41
38.4	1282.41
38.42	1390.79
38.44	1228.23
38.46	1246.29
38.48	1481.1
38.5	1372.72
38.52	1174.04
38.54	1426.91
38.56	1625.59
38.58	1553.34
38.6	1372.72
38.62	1246.29
38.64	1354.66
38.66	1192.1
38.68	1282.41
38.7	1499.16
38.72	1481.1
38.74	1444.97
38.76	1192.1
38.78	1426.91
38.8	1137.92
38.82	1174.04
38.84	1192.1
38.86	1372.72
38.88	1589.47
38.9	1408.85
38.92	1210.16
38.94	1408.85
38.96	1192.1
38.98	1210.16
39	1155.98
39.02	1336.6
39.04	1589.47
39.06	1264.35
39.08	921.169
39.1	1029.54
39.12	1065.67
39.14	1083.73
39.16	1553.34
39.18	1174.04
39.2	1011.48
39.22	1463.03
39.24	1228.23
39.26	1246.29
39.28	1228.23
39.3	1318.54
39.32	1372.72
39.34	1282.41
39.36	1192.1
39.38	1372.72
39.4	1155.98
39.42	1426.91
39.44	1661.72
39.46	1300.47
39.48	1119.85
39.5	1444.97
39.52	1300.47
39.54	1300.47
39.56	1444.97
39.58	1210.16
39.6	1174.04
39.62	1228.23
39.64	1264.35
39.66	1119.85
39.68	1336.6
39.7	1354.66
39.72	1426.91
39.74	1101.79
39.76	1318.54
39.78	975.356
39.8	1318.54
39.82	1444.97
39.84	1155.98
39.86	903.107
39.88	1083.73
39.9	1228.23
39.92	1463.03
39.94	1354.66
39.96	1137.92
39.98	1390.79
40	1174.04
40.02	1300.47
40.04	1174.04
40.06	1408.85
40.08	1300.47
40.1	1011.48
40.12	1155.98
40.14	1119.85
40.16	921.169
40.18	1119.85
40.2	1390.79
40.22	1264.35
40.24	1137.92
40.26	1481.1
40.28	1137.92
40.3	1426.91
40.32	1535.28
40.34	1137.92
40.36	1228.23
40.38	1192.1
40.4	1029.54
40.42	1119.85
40.44	1101.79
40.46	1011.48
40.48	1101.79
40.5	1228.23
40.52	1137.92
40.54	1174.04
40.56	1210.16
40.58	1354.66
40.6	758.61
40.62	957.294
40.64	1463.03
40.66	1101.79
40.68	1372.72
40.7	1083.73
40.72	1192.1
40.74	1119.85
40.76	1336.6
40.78	1408.85
40.8	1210.16
40.82	848.921
40.84	1390.79
40.86	1047.6
40.88	993.418
40.9	1264.35
40.92	1408.85
40.94	1282.41
40.96	1246.29
40.98	1174.04
41	1336.6
41.02	1047.6
41.04	1029.54
41.06	1390.79
41.08	1318.54
41.1	1300.47
41.12	921.169
41.14	1174.04
41.16	1137.92
41.18	1481.1
41.2	1029.54
41.22	1336.6
41.24	1318.54
41.26	1282.41
41.28	1210.16
41.3	1246.29
41.32	1318.54
41.34	1499.16
41.36	1119.85
41.38	957.294
41.4	1174.04
41.42	1137.92
41.44	1101.79
41.46	1174.04
41.48	1246.29
41.5	1228.23
41.52	1192.1
41.54	1246.29
41.56	1264.35
41.58	1083.73
41.6	866.983
41.62	1192.1
41.64	1372.72
41.66	1300.47
41.68	1408.85
41.7	1354.66
41.72	1264.35
41.74	957.294
41.76	1192.1
41.78	975.356
41.8	1192.1
41.82	1174.04
41.84	1137.92
41.86	1083.73
41.88	1210.16
41.9	1354.66
41.92	1192.1
41.94	1246.29
41.96	921.169
41.98	1155.98
42	1264.35
42.02	1065.67
42.04	1174.04
42.06	1174.04
42.08	1119.85
42.1	957.294
42.12	1119.85
42.14	1300.47
42.16	1174.04
42.18	1300.47
42.2	1318.54
42.22	1083.73
42.24	1282.41
42.26	1011.48
42.28	1137.92
42.3	993.418
42.32	1029.54
42.34	1282.41
42.36	1228.23
42.38	1119.85
42.4	1101.79
42.42	866.983
42.44	939.232
42.46	1372.72
42.48	1372.72
42.5	1210.16
42.52	1047.6
42.54	1192.1
42.56	1047.6
42.58	1029.54
42.6	1083.73
42.62	1174.04
42.64	993.418
42.66	1246.29
42.68	1083.73
42.7	1300.47
42.72	1192.1
42.74	939.232
42.76	1246.29
42.78	1137.92
42.8	1300.47
42.82	1571.41
42.84	1372.72
42.86	1029.54
42.88	1264.35
42.9	1426.91
42.92	1174.04
42.94	1246.29
42.96	866.983
42.98	993.418
43	1011.48
43.02	975.356
43.04	1101.79
43.06	921.169
43.08	1282.41
43.1	1264.35
43.12	1155.98
43.14	848.921
43.16	1011.48
43.18	1264.35
43.2	1011.48
43.22	993.418
43.24	1137.92
43.26	975.356
43.28	1264.35
43.3	1029.54
43.32	1155.98
43.34	1119.85
43.36	1228.23
43.38	1282.41
43.4	1011.48
43.42	1264.35
43.44	1101.79
43.46	1155.98
43.48	1210.16
43.5	1119.85
43.52	1354.66
43.54	1029.54
43.56	939.232
43.58	1011.48
43.6	1174.04
43.62	1047.6
43.64	1083.73
43.66	993.418
43.68	1318.54
43.7	1174.04
43.72	1192.1
43.74	1155.98
43.76	1354.66
43.78	1300.47
43.8	1174.04
43.82	1083.73
43.84	1282.41
43.86	1264.35
43.88	1372.72
43.9	1336.6
43.92	1047.6
43.94	1047.6
43.96	1047.6
43.98	993.418
44	1336.6
44.02	1282.41
44.04	1047.6
44.06	1137.92
44.08	1119.85
44.1	1101.79
44.12	1065.67
44.14	939.232
44.16	1246.29
44.18	1192.1
44.2	1047.6
44.22	1192.1
44.24	921.169
44.26	704.424
44.28	1119.85
44.3	1101.79
44.32	758.61
44.34	1210.16
44.36	1137.92
44.38	1264.35
44.4	1155.98
44.42	1354.66
44.44	1210.16
44.46	1228.23
44.48	1011.48
44.5	1083.73
44.52	921.169
44.54	957.294
44.56	1047.6
44.58	1174.04
44.6	921.169
44.62	903.107
44.64	1047.6
44.66	866.983
44.68	1047.6
44.7	1354.66
44.72	1065.67
44.74	1192.1
44.76	848.921
44.78	1029.54
44.8	1065.67
44.82	1047.6
44.84	903.107
44.86	957.294
44.88	993.418
44.9	921.169
44.92	1192.1
44.94	975.356
44.96	1517.22
44.98	975.356
45	1155.98
45.02	1101.79
45.04	866.983
45.06	1137.92
45.08	993.418
45.1	939.232
45.12	1101.79
45.14	1083.73
45.16	1137.92
45.18	1119.85
45.2	848.921
45.22	1011.48
45.24	1011.48
45.26	1192.1
45.28	1192.1
45.3	1047.6
45.32	1210.16
45.34	1210.16
45.36	1282.41
45.38	975.356
45.4	1119.85
45.42	1192.1
45.44	885.045
45.46	1011.48
45.48	1065.67
45.5	1101.79
45.52	1155.98
45.54	848.921
45.56	1083.73
45.58	1264.35
45.6	1137.92
45.62	1011.48
45.64	957.294
45.66	993.418
45.68	1065.67
45.7	885.045
45.72	885.045
45.74	866.983
45.76	1011.48
45.78	1047.6
45.8	1228.23
45.82	1553.34
45.84	975.356
45.86	1011.48
45.88	1029.54
45.9	921.169
45.92	1192.1
45.94	957.294
45.96	1119.85
45.98	903.107
46	1083.73
46.02	1137.92
46.04	903.107
46.06	957.294
46.08	975.356
46.1	939.232
46.12	975.356
46.14	812.797
46.16	975.356
46.18	1011.48
46.2	1246.29
46.22	885.045
46.24	1047.6
46.26	1083.73
46.28	1083.73
46.3	1137.92
46.32	957.294
46.34	1047.6
46.36	1065.67
46.38	957.294
46.4	758.61
46.42	758.61
46.44	957.294
46.46	866.983
46.48	794.734
46.5	1083.73
46.52	1192.1
46.54	1282.41
46.56	903.107
46.58	1011.48
46.6	903.107
46.62	1192.1
46.64	921.169
46.66	975.356
46.68	1137.92
46.7	921.169
46.72	1155.98
46.74	939.232
46.76	812.797
46.78	848.921
46.8	903.107
46.82	1101.79
46.84	1029.54
46.86	1065.67
46.88	1101.79
46.9	776.672
46.92	1011.48
46.94	885.045
46.96	1029.54
46.98	740.548
47	939.232
47.02	1011.48
47.04	1065.67
47.06	1083.73
47.08	776.672
47.1	812.797
47.12	1228.23
47.14	1137.92
47.16	885.045
47.18	740.548
47.2	686.362
47.22	848.921
47.24	921.169
47.26	1011.48
47.28	975.356
47.3	975.356
47.32	921.169
47.34	903.107
47.36	848.921
47.38	722.486
47.4	1192.1
47.42	1083.73
47.44	1029.54
47.46	866.983
47.48	1047.6
47.5	758.61
47.52	794.734
47.54	1119.85
47.56	939.232
47.58	993.418
47.6	758.61
47.62	686.362
47.64	957.294
47.66	921.169
47.68	921.169
47.7	957.294
47.72	1047.6
47.74	1101.79
47.76	993.418
47.78	830.859
47.8	758.61
47.82	939.232
47.84	957.294
47.86	1210.16
47.88	921.169
47.9	794.734
47.92	957.294
47.94	1029.54
47.96	903.107
47.98	794.734
48	1083.73
48.02	776.672
48.04	1119.85
48.06	975.356
48.08	776.672
48.1	921.169
48.12	794.734
48.14	885.045
48.16	975.356
48.18	830.859
48.2	939.232
48.22	957.294
48.24	939.232
48.26	1119.85
48.28	830.859
48.3	1155.98
48.32	830.859
48.34	866.983
48.36	794.734
48.38	812.797
48.4	866.983
48.42	885.045
48.44	1119.85
48.46	957.294
48.48	921.169
48.5	866.983
48.52	1065.67
48.54	903.107
48.56	830.859
48.58	722.486
48.6	1011.48
48.62	957.294
48.64	776.672
48.66	975.356
48.68	993.418
48.7	848.921
48.72	722.486
48.74	921.169
48.76	776.672
48.78	885.045
48.8	794.734
48.82	794.734
48.84	1011.48
48.86	686.362
48.88	903.107
48.9	921.169
48.92	722.486
48.94	885.045
48.96	993.418
48.98	1029.54
49	848.921
49.02	1011.48
49.04	1047.6
49.06	939.232
49.08	939.232
49.1	722.486
49.12	812.797
49.14	957.294
49.16	885.045
49.18	1065.67
49.2	830.859
49.22	903.107
49.24	722.486
49.26	740.548
49.28	993.418
49.3	885.045
49.32	830.859
49.34	939.232
49.36	704.424
49.38	848.921
49.4	848.921
49.42	1137.92
49.44	866.983
49.46	794.734
49.48	939.232
49.5	668.299
49.52	921.169
49.54	668.299
49.56	614.113
49.58	758.61
49.6	921.169
49.62	830.859
49.64	794.734
49.66	776.672
49.68	903.107
49.7	939.232
49.72	794.734
49.74	1101.79
49.76	650.237
49.78	776.672
49.8	794.734
49.82	1029.54
49.84	722.486
49.86	632.175
49.88	812.797
49.9	957.294
49.92	812.797
49.94	812.797
49.96	668.299
49.98	794.734
50	758.61
50.02	650.237
50.04	812.797
50.06	866.983
50.08	668.299
50.1	650.237
50.12	722.486
50.14	1011.48
50.16	975.356
50.18	758.61
50.2	812.797
50.22	632.175
50.24	722.486
50.26	758.61
50.28	776.672
50.3	848.921
50.32	866.983
50.34	866.983
50.36	812.797
50.38	830.859
50.4	704.424
50.42	812.797
50.44	758.61
50.46	776.672
50.48	668.299
50.5	830.859
50.52	559.927
50.54	903.107
50.56	848.921
50.58	722.486
50.6	830.859
50.62	722.486
50.64	830.859
50.66	885.045
50.68	921.169
50.7	794.734
50.72	975.356
50.74	921.169
50.76	1011.48
50.78	830.859
50.8	885.045
50.82	848.921
50.84	686.362
50.86	794.734
50.88	776.672
50.9	794.734
50.92	848.921
50.94	776.672
50.96	957.294
50.98	776.672
51	704.424
51.02	885.045
51.04	704.424
51.06	993.418
51.08	794.734
51.1	848.921
51.12	794.734
51.14	740.548
51.16	866.983
51.18	812.797
51.2	650.237
51.22	848.921
51.24	740.548
51.26	704.424
51.28	866.983
51.3	596.051
51.32	650.237
51.34	686.362
51.36	740.548
51.38	812.797
51.4	903.107
51.42	776.672
51.44	812.797
51.46	740.548
51.48	993.418
51.5	487.678
51.52	830.859
51.54	596.051
51.56	812.797
51.58	704.424
51.6	650.237
51.62	758.61
51.64	704.424
51.66	866.983
51.68	722.486
51.7	650.237
51.72	686.362
51.74	776.672
51.76	740.548
51.78	704.424
51.8	632.175
51.82	830.859
51.84	794.734
51.86	1047.6
51.88	740.548
51.9	686.362
51.92	866.983
51.94	541.864
51.96	794.734
51.98	830.859
52	686.362
52.02	632.175
52.04	523.802
52.06	776.672
52.08	740.548
52.1	885.045
52.12	722.486
52.14	812.797
52.16	794.734
52.18	577.989
52.2	794.734
52.22	848.921
52.24	686.362
52.26	704.424
52.28	541.864
52.3	596.051
52.32	794.734
52.34	650.237
52.36	776.672
52.38	758.61
52.4	812.797
52.42	740.548
52.44	650.237
52.46	921.169
52.48	614.113
52.5	885.045
52.52	957.294
52.54	848.921
52.56	686.362
52.58	632.175
52.6	866.983
52.62	686.362
52.64	650.237
52.66	541.864
52.68	776.672
52.7	794.734
52.72	632.175
52.74	614.113
52.76	668.299
52.78	668.299
52.8	758.61
52.82	668.299
52.84	866.983
52.86	776.672
52.88	505.74
52.9	614.113
52.92	776.672
52.94	758.61
52.96	812.797
52.98	812.797
53	740.548
53.02	758.61
53.04	776.672
53.06	848.921
53.08	758.61
53.1	758.61
53.12	794.734
53.14	758.61
53.16	740.548
53.18	885.045
53.2	903.107
53.22	740.548
53.24	632.175
53.26	740.548
53.28	541.864
53.3	668.299
53.32	650.237
53.34	740.548
53.36	686.362
53.38	848.921
53.4	794.734
53.42	776.672
53.44	830.859
53.46	758.61
53.48	505.74
53.5	632.175
53.52	740.548
53.54	668.299
53.56	776.672
53.58	866.983
53.6	650.237
53.62	830.859
53.64	632.175
53.66	596.051
53.68	469.616
53.7	614.113
53.72	812.797
53.74	776.672
53.76	794.734
53.78	668.299
53.8	523.802
53.82	830.859
53.84	704.424
53.86	559.927
53.88	632.175
53.9	722.486
53.92	722.486
53.94	1011.48
53.96	758.61
53.98	668.299
54	812.797
54.02	903.107
54.04	939.232
54.06	722.486
54.08	614.113
54.1	758.61
54.12	812.797
54.14	650.237
54.16	469.616
54.18	848.921
54.2	740.548
54.22	957.294
54.24	541.864
54.26	722.486
54.28	577.989
54.3	812.797
54.32	704.424
54.34	523.802
54.36	632.175
54.38	614.113
54.4	758.61
54.42	632.175
54.44	686.362
54.46	559.927
54.48	469.616
54.5	704.424
54.52	650.237
54.54	686.362
54.56	650.237
54.58	776.672
54.6	722.486
54.62	668.299
54.64	740.548
54.66	794.734
54.68	794.734
54.7	830.859
54.72	704.424
54.74	794.734
54.76	614.113
54.78	704.424
54.8	758.61
54.82	577.989
54.84	740.548
54.86	740.548
54.88	614.113
54.9	668.299
54.92	668.299
54.94	722.486
54.96	740.548
54.98	704.424
55	650.237
55.02	686.362
55.04	577.989
55.06	740.548
55.08	903.107
55.1	559.927
55.12	577.989
55.14	650.237
55.16	650.237
55.18	722.486
55.2	577.989
55.22	686.362
55.24	577.989
55.26	848.921
55.28	704.424
55.3	650.237
55.32	848.921
55.34	523.802
55.36	740.548
55.38	686.362
55.4	614.113
55.42	758.61
55.44	577.989
55.46	577.989
55.48	541.864
55.5	686.362
55.52	614.113
55.54	541.864
55.56	650.237
55.58	794.734
55.6	577.989
55.62	704.424
55.64	632.175
55.66	614.113
55.68	650.237
55.7	559.927
55.72	614.113
55.74	541.864
55.76	812.797
55.78	469.616
55.8	487.678
55.82	650.237
55.84	650.237
55.86	668.299
55.88	704.424
55.9	704.424
55.92	740.548
55.94	650.237
55.96	740.548
55.98	523.802
56	686.362
56.02	451.554
56.04	541.864
56.06	758.61
56.08	722.486
56.1	957.294
56.12	650.237
56.14	577.989
56.16	632.175
56.18	686.362
56.2	848.921
56.22	577.989
56.24	758.61
56.26	650.237
56.28	596.051
56.3	596.051
56.32	704.424
56.34	541.864
56.36	704.424
56.38	794.734
56.4	686.362
56.42	686.362
56.44	505.74
56.46	668.299
56.48	596.051
56.5	722.486
56.52	650.237
56.54	722.486
56.56	722.486
56.58	686.362
56.6	541.864
56.62	523.802
56.64	632.175
56.66	614.113
56.68	523.802
56.7	433.492
56.72	848.921
56.74	830.859
56.76	505.74
56.78	632.175
56.8	541.864
56.82	704.424
56.84	596.051
56.86	722.486
56.88	668.299
56.9	523.802
56.92	668.299
56.94	776.672
56.96	577.989
56.98	559.927
57	686.362
57.02	722.486
57.04	650.237
57.06	614.113
57.08	632.175
57.1	632.175
57.12	668.299
57.14	541.864
57.16	541.864
57.18	379.305
57.2	523.802
57.22	776.672
57.24	596.051
57.26	632.175
57.28	577.989
57.3	614.113
57.32	487.678
57.34	505.74
57.36	650.237
57.38	668.299
57.4	632.175
57.42	559.927
57.44	505.74
57.46	577.989
57.48	740.548
57.5	596.051
57.52	559.927
57.54	686.362
57.56	848.921
57.58	523.802
57.6	740.548
57.62	722.486
57.64	379.305
57.66	704.424
57.68	632.175
57.7	596.051
57.72	704.424
57.74	650.237
57.76	632.175
57.78	487.678
57.8	632.175
57.82	487.678
57.84	596.051
57.86	758.61
57.88	740.548
57.9	686.362
57.92	704.424
57.94	505.74
57.96	866.983
57.98	505.74
58	505.74
58.02	559.927
58.04	650.237
58.06	650.237
58.08	505.74
58.1	668.299
58.12	866.983
58.14	686.362
58.16	505.74
58.18	596.051
58.2	505.74
58.22	541.864
58.24	632.175
58.26	577.989
58.28	577.989
58.3	614.113
58.32	415.429
58.34	722.486
58.36	596.051
58.38	776.672
58.4	596.051
58.42	740.548
58.44	740.548
58.46	686.362
58.48	704.424
58.5	614.113
58.52	614.113
58.54	596.051
58.56	722.486
58.58	668.299
58.6	541.864
58.62	650.237
58.64	469.616
58.66	740.548
58.68	632.175
58.7	451.554
58.72	523.802
58.74	614.113
58.76	650.237
58.78	559.927
58.8	523.802
58.82	650.237
58.84	541.864
58.86	596.051
58.88	704.424
58.9	686.362
58.92	487.678
58.94	559.927
58.96	704.424
58.98	650.237
59	469.616
59.02	614.113
59.04	668.299
59.06	523.802
59.08	650.237
59.1	650.237
59.12	668.299
59.14	541.864
59.16	505.74
59.18	577.989
59.2	379.305
59.22	541.864
59.24	559.927
59.26	559.927
59.28	523.802
59.3	487.678
59.32	722.486
59.34	541.864
59.36	704.424
59.38	451.554
59.4	686.362
59.42	577.989
59.44	523.802
59.46	794.734
59.48	559.927
59.5	596.051
59.52	704.424
59.54	505.74
59.56	577.989
59.58	722.486
59.6	776.672
59.62	596.051
59.64	740.548
59.66	541.864
59.68	577.989
59.7	794.734
59.72	632.175
59.74	632.175
59.76	577.989
59.78	614.113
59.8	614.113
59.82	650.237
59.84	577.989
59.86	559.927
59.88	433.492
59.9	632.175
59.92	722.486
59.94	505.74
59.96	740.548
59.98	596.051
60	469.616
2
59.96	325.119
59.98	307.056
60	234.808
