Sample	 
Comments	 
Filename	C:\Data\西出研\梅木\20211102オペ\LiFTFSI30wt_02_0002_0049-1_C_2θ.raw
Goniometer	SmartLab(In-plane)
Attachment	標準Zステージ
Monochromater	None
X	0
Y	0
Z	0.01652
ScanningMode	2Theta
ScanningType	Continuos Scanning
X-Ray	40kV/30mA
入射スリット	0.300mm
受光スリット1	20.000mm
受光スリット2	20.000mm
None	
Start	5
Stop	60
Step	0.02
Speed	21.6746
Theta	0
5	5346.4
5.02	5599.27
5.04	5346.4
5.06	5852.14
5.08	5888.26
5.1	4804.53
5.12	5508.95
5.14	5888.26
5.16	5093.53
5.18	5436.71
5.2	5238.02
5.22	5635.39
5.24	5563.14
5.26	5418.64
5.28	5418.64
5.3	5400.58
5.32	6050.82
5.34	5292.21
5.36	5653.45
5.38	5165.77
5.4	6032.76
5.42	5021.28
5.44	5346.4
5.46	5129.65
5.48	5490.89
5.5	5888.26
5.52	5581.2
5.54	5436.71
5.56	5924.38
5.58	6086.94
5.6	5563.14
5.62	5852.14
5.64	6050.82
5.66	5490.89
5.68	5436.71
5.7	5545.08
5.72	5436.71
5.74	5725.7
5.76	5183.84
5.78	5418.64
5.8	5292.21
5.82	5400.58
5.84	5490.89
5.86	5111.59
5.88	5508.95
5.9	5454.77
5.92	5545.08
5.94	5418.64
5.96	5472.83
5.98	5545.08
6	5003.21
6.02	5147.71
6.04	5400.58
6.06	5129.65
6.08	5346.4
6.1	5364.46
6.12	5201.9
6.14	4985.15
6.16	5599.27
6.18	5021.28
6.2	4804.53
6.22	5581.2
6.24	4985.15
6.26	4768.41
6.28	5129.65
6.3	5201.9
6.32	5508.95
6.34	5183.84
6.36	5165.77
6.38	4714.22
6.4	5075.46
6.42	5039.34
6.44	5382.52
6.46	4750.34
6.48	5581.2
6.5	5382.52
6.52	5147.71
6.54	5165.77
6.56	5021.28
6.58	5201.9
6.6	4822.59
6.62	4840.66
6.64	5346.4
6.66	4930.97
6.68	5599.27
6.7	5003.21
6.72	5310.27
6.74	5129.65
6.76	5057.4
6.78	5183.84
6.8	5219.96
6.82	5382.52
6.84	4750.34
6.86	4750.34
6.88	4822.59
6.9	5238.02
6.92	5111.59
6.94	5454.77
6.96	4949.03
6.98	5418.64
7	4967.09
7.02	5093.53
7.04	4732.28
7.06	4768.41
7.08	4660.03
7.1	4804.53
7.12	5075.46
7.14	5147.71
7.16	4804.53
7.18	4696.16
7.2	4551.66
7.22	4678.1
7.24	4533.6
7.26	5147.71
7.28	4894.84
7.3	4660.03
7.32	4949.03
7.34	4804.53
7.36	4407.16
7.38	4714.22
7.4	4894.84
7.42	4804.53
7.44	4641.97
7.46	4533.6
7.48	4750.34
7.5	4551.66
7.52	4732.28
7.54	4533.6
7.56	4894.84
7.58	5057.4
7.6	4696.16
7.62	4840.66
7.64	4876.78
7.66	5075.46
7.68	4587.79
7.7	5147.71
7.72	4226.54
7.74	4822.59
7.76	4985.15
7.78	4623.91
7.8	4912.9
7.82	4678.1
7.84	4696.16
7.86	4696.16
7.88	4641.97
7.9	5093.53
7.92	4660.03
7.94	4840.66
7.96	5057.4
7.98	4678.1
8	4804.53
8.02	4298.79
8.04	4226.54
8.06	3865.3
8.08	4569.72
8.1	4678.1
8.12	4949.03
8.14	4840.66
8.16	4623.91
8.18	4750.34
8.2	5003.21
8.22	4876.78
8.24	5111.59
8.26	5039.34
8.28	4912.9
8.3	4714.22
8.32	5075.46
8.34	5057.4
8.36	4082.05
8.38	4623.91
8.4	5256.08
8.42	4840.66
8.44	4569.72
8.46	4840.66
8.48	4967.09
8.5	4605.85
8.52	4641.97
8.54	4949.03
8.56	4912.9
8.58	5256.08
8.6	5165.77
8.62	5021.28
8.64	5400.58
8.66	4840.66
8.68	5003.21
8.7	4641.97
8.72	4660.03
8.74	4479.41
8.76	5021.28
8.78	4876.78
8.8	4678.1
8.82	4949.03
8.84	4280.73
8.86	4678.1
8.88	4840.66
8.9	4533.6
8.92	4840.66
8.94	5093.53
8.96	4443.29
8.98	4316.85
9	4407.16
9.02	4515.54
9.04	4533.6
9.06	5111.59
9.08	4515.54
9.1	5039.34
9.12	4587.79
9.14	4750.34
9.16	4768.41
9.18	4623.91
9.2	4768.41
9.22	4605.85
9.24	4009.8
9.26	4443.29
9.28	3774.99
9.3	4768.41
9.32	4443.29
9.34	4551.66
9.36	4352.98
9.38	4985.15
9.4	4660.03
9.42	4623.91
9.44	4786.47
9.46	4768.41
9.48	4714.22
9.5	4605.85
9.52	4551.66
9.54	4497.47
9.56	4876.78
9.58	4551.66
9.6	4804.53
9.62	4732.28
9.64	4587.79
9.66	4443.29
9.68	4352.98
9.7	4316.85
9.72	4569.72
9.74	4407.16
9.76	4714.22
9.78	4587.79
9.8	4443.29
9.82	4352.98
9.84	4280.73
9.86	4678.1
9.88	4641.97
9.9	3937.55
9.92	4949.03
9.94	4605.85
9.96	4443.29
9.98	4371.04
10	4930.97
10.02	4533.6
10.04	4786.47
10.06	4930.97
10.08	4714.22
10.1	4371.04
10.12	4858.72
10.14	4208.48
10.16	4678.1
10.18	4082.05
10.2	4172.36
10.22	4100.11
10.24	4515.54
10.26	4479.41
10.28	4497.47
10.3	4461.35
10.32	4641.97
10.34	4804.53
10.36	4551.66
10.38	4100.11
10.4	4858.72
10.42	4497.47
10.44	4334.92
10.46	4678.1
10.48	4334.92
10.5	4678.1
10.52	4479.41
10.54	4244.6
10.56	4569.72
10.58	4569.72
10.6	3955.61
10.62	4623.91
10.64	4316.85
10.66	3919.49
10.68	4515.54
10.7	4226.54
10.72	4190.42
10.74	4425.23
10.76	4009.8
10.78	4352.98
10.8	4334.92
10.82	4082.05
10.84	4461.35
10.86	3847.24
10.88	4262.67
10.9	4479.41
10.92	4316.85
10.94	4641.97
10.96	4786.47
10.98	4587.79
11	4407.16
11.02	4190.42
11.04	4118.17
11.06	4352.98
11.08	4515.54
11.1	4461.35
11.12	4371.04
11.14	4569.72
11.16	4696.16
11.18	4497.47
11.2	4623.91
11.22	4280.73
11.24	4696.16
11.26	4587.79
11.28	4641.97
11.3	4334.92
11.32	4876.78
11.34	4497.47
11.36	4479.41
11.38	4551.66
11.4	4208.48
11.42	4407.16
11.44	4461.35
11.46	4623.91
11.48	4316.85
11.5	4334.92
11.52	4027.86
11.54	4334.92
11.56	4334.92
11.58	4100.11
11.6	4082.05
11.62	4100.11
11.64	4587.79
11.66	5075.46
11.68	4226.54
11.7	4515.54
11.72	4136.23
11.74	3991.73
11.76	4443.29
11.78	4533.6
11.8	4822.59
11.82	4136.23
11.84	4497.47
11.86	4208.48
11.88	4479.41
11.9	4100.11
11.92	4515.54
11.94	4696.16
11.96	4822.59
11.98	4569.72
12	4009.8
12.02	4371.04
12.04	4316.85
12.06	4262.67
12.08	4262.67
12.1	4280.73
12.12	4262.67
12.14	4063.98
12.16	4515.54
12.18	4407.16
12.2	4352.98
12.22	4497.47
12.24	4262.67
12.26	4479.41
12.28	4678.1
12.3	4226.54
12.32	4678.1
12.34	4461.35
12.36	4551.66
12.38	4136.23
12.4	4280.73
12.42	4587.79
12.44	4208.48
12.46	4316.85
12.48	3865.3
12.5	4208.48
12.52	4479.41
12.54	4371.04
12.56	4298.79
12.58	4822.59
12.6	4714.22
12.62	4244.6
12.64	4262.67
12.66	4569.72
12.68	4118.17
12.7	4587.79
12.72	4551.66
12.74	3919.49
12.76	4298.79
12.78	4660.03
12.8	4479.41
12.82	4226.54
12.84	4930.97
12.86	4985.15
12.88	5201.9
12.9	5274.15
12.92	5165.77
12.94	5238.02
12.96	4768.41
12.98	5201.9
13	5147.71
13.02	4822.59
13.04	4623.91
13.06	4605.85
13.08	4479.41
13.1	4316.85
13.12	4569.72
13.14	3973.67
13.16	4172.36
13.18	4316.85
13.2	5165.77
13.22	4371.04
13.24	4280.73
13.26	3991.73
13.28	4587.79
13.3	4786.47
13.32	4244.6
13.34	4100.11
13.36	4605.85
13.38	3883.36
13.4	3955.61
13.42	4190.42
13.44	4371.04
13.46	3811.11
13.48	4678.1
13.5	4858.72
13.52	4226.54
13.54	3774.99
13.56	4389.1
13.58	4298.79
13.6	4786.47
13.62	4407.16
13.64	4136.23
13.66	4118.17
13.68	4479.41
13.7	3901.42
13.72	4443.29
13.74	4027.86
13.76	4461.35
13.78	4226.54
13.8	4082.05
13.82	4678.1
13.84	4118.17
13.86	4696.16
13.88	4154.29
13.9	4858.72
13.92	4533.6
13.94	4389.1
13.96	4190.42
13.98	4334.92
14	4352.98
14.02	4371.04
14.04	4009.8
14.06	4352.98
14.08	4371.04
14.1	4244.6
14.12	4551.66
14.14	4280.73
14.16	4100.11
14.18	4425.23
14.2	4226.54
14.22	4244.6
14.24	3973.67
14.26	3648.55
14.28	4136.23
14.3	3991.73
14.32	4515.54
14.34	4172.36
14.36	4118.17
14.38	4497.47
14.4	3811.11
14.42	4226.54
14.44	4461.35
14.46	3955.61
14.48	4190.42
14.5	3991.73
14.52	4479.41
14.54	4334.92
14.56	3756.93
14.58	4154.29
14.6	4190.42
14.62	4334.92
14.64	4316.85
14.66	4407.16
14.68	3612.43
14.7	4371.04
14.72	4425.23
14.74	4100.11
14.76	4063.98
14.78	3937.55
14.8	4280.73
14.82	4298.79
14.84	3901.42
14.86	4280.73
14.88	3829.18
14.9	4009.8
14.92	4371.04
14.94	4154.29
14.96	3847.24
14.98	4172.36
15	3702.74
15.02	4587.79
15.04	3720.8
15.06	3973.67
15.08	4352.98
15.1	4244.6
15.12	4226.54
15.14	3738.86
15.16	3774.99
15.18	3973.67
15.2	3901.42
15.22	4262.67
15.24	3901.42
15.26	3865.3
15.28	4208.48
15.3	4118.17
15.32	4316.85
15.34	4045.92
15.36	4136.23
15.38	4045.92
15.4	4190.42
15.42	4172.36
15.44	3793.05
15.46	4136.23
15.48	4605.85
15.5	4100.11
15.52	3901.42
15.54	3919.49
15.56	4190.42
15.58	4154.29
15.6	3702.74
15.62	4154.29
15.64	4063.98
15.66	3991.73
15.68	4262.67
15.7	3919.49
15.72	3666.62
15.74	3756.93
15.76	4208.48
15.78	4172.36
15.8	3774.99
15.82	3684.68
15.84	4082.05
15.86	4045.92
15.88	4461.35
15.9	4136.23
15.92	3720.8
15.94	3829.18
15.96	3847.24
15.98	3630.49
16	4461.35
16.02	3666.62
16.04	3811.11
16.06	4082.05
16.08	3738.86
16.1	3847.24
16.12	4082.05
16.14	3829.18
16.16	4100.11
16.18	4389.1
16.2	4461.35
16.22	3901.42
16.24	4082.05
16.26	4136.23
16.28	4371.04
16.3	3756.93
16.32	3973.67
16.34	4316.85
16.36	3558.24
16.38	3883.36
16.4	4352.98
16.42	3504.06
16.44	3793.05
16.46	3756.93
16.48	3811.11
16.5	3883.36
16.52	3558.24
16.54	4190.42
16.56	4136.23
16.58	3973.67
16.6	4100.11
16.62	3485.99
16.64	3630.49
16.66	3991.73
16.68	4082.05
16.7	3955.61
16.72	4352.98
16.74	3630.49
16.76	3576.31
16.78	3973.67
16.8	3702.74
16.82	3991.73
16.84	4262.67
16.86	3937.55
16.88	4461.35
16.9	4334.92
16.92	3774.99
16.94	4045.92
16.96	4316.85
16.98	4208.48
17	3756.93
17.02	4244.6
17.04	4569.72
17.06	4316.85
17.08	4063.98
17.1	4714.22
17.12	4154.29
17.14	4949.03
17.16	5003.21
17.18	5129.65
17.2	5454.77
17.22	5039.34
17.24	5382.52
17.26	6086.94
17.28	6014.69
17.3	5671.51
17.32	5183.84
17.34	4876.78
17.36	4461.35
17.38	4894.84
17.4	4443.29
17.42	4118.17
17.44	3847.24
17.46	4009.8
17.48	4154.29
17.5	4045.92
17.52	3937.55
17.54	4352.98
17.56	4027.86
17.58	3919.49
17.6	3774.99
17.62	4280.73
17.64	4154.29
17.66	4082.05
17.68	3648.55
17.7	4082.05
17.72	3865.3
17.74	3811.11
17.76	4082.05
17.78	4045.92
17.8	3449.87
17.82	3973.67
17.84	3756.93
17.86	3449.87
17.88	3594.37
17.9	3793.05
17.92	4063.98
17.94	4208.48
17.96	3919.49
17.98	4082.05
18	4280.73
18.02	4262.67
18.04	4371.04
18.06	4280.73
18.08	4352.98
18.1	4822.59
18.12	5328.33
18.14	5418.64
18.16	5653.45
18.18	6195.32
18.2	6773.31
18.22	6430.12
18.24	5924.38
18.26	5978.57
18.28	6105.01
18.3	5563.14
18.32	5364.46
18.34	5364.46
18.36	4949.03
18.38	5165.77
18.4	4967.09
18.42	4696.16
18.44	4461.35
18.46	5635.39
18.48	4786.47
18.5	4605.85
18.52	4930.97
18.54	4804.53
18.56	4208.48
18.58	4497.47
18.6	3973.67
18.62	3955.61
18.64	4063.98
18.66	4190.42
18.68	4154.29
18.7	3630.49
18.72	3991.73
18.74	3630.49
18.76	4027.86
18.78	4786.47
18.8	4118.17
18.82	4569.72
18.84	4100.11
18.86	4912.9
18.88	4858.72
18.9	5472.83
18.92	5436.71
18.94	5021.28
18.96	5364.46
18.98	6105.01
19	6791.37
19.02	6050.82
19.04	5924.38
19.06	5996.63
19.08	6430.12
19.1	6267.56
19.12	5671.51
19.14	6141.13
19.16	5689.58
19.18	5852.14
19.2	5743.76
19.22	5689.58
19.24	6430.12
19.26	6159.19
19.28	6177.25
19.3	5707.64
19.32	5129.65
19.34	5093.53
19.36	5075.46
19.38	4949.03
19.4	5238.02
19.42	5238.02
19.44	4425.23
19.46	5256.08
19.48	5310.27
19.5	4407.16
19.52	4660.03
19.54	4371.04
19.56	4858.72
19.58	4569.72
19.6	3973.67
19.62	3865.3
19.64	4407.16
19.66	4605.85
19.68	4930.97
19.7	4298.79
19.72	3901.42
19.74	3756.93
19.76	4027.86
19.78	3793.05
19.8	4172.36
19.82	3558.24
19.84	3738.86
19.86	3684.68
19.88	3178.94
19.9	3341.5
19.92	3937.55
19.94	3377.62
19.96	3829.18
19.98	3485.99
20	3793.05
20.02	3413.75
20.04	3991.73
20.06	3594.37
20.08	3738.86
20.1	3973.67
20.12	3504.06
20.14	3901.42
20.16	3449.87
20.18	3738.86
20.2	3847.24
20.22	3576.31
20.24	2998.32
20.26	4027.86
20.28	3684.68
20.3	3720.8
20.32	3431.81
20.34	3160.88
20.36	3540.18
20.38	3540.18
20.4	3720.8
20.42	3431.81
20.44	3829.18
20.46	3955.61
20.48	3504.06
20.5	3305.37
20.52	3666.62
20.54	3467.93
20.56	4154.29
20.58	3504.06
20.6	3612.43
20.62	3449.87
20.64	3359.56
20.66	3413.75
20.68	4190.42
20.7	3341.5
20.72	4226.54
20.74	3648.55
20.76	4190.42
20.78	3630.49
20.8	3485.99
20.82	3793.05
20.84	3937.55
20.86	3522.12
20.88	3811.11
20.9	4082.05
20.92	3684.68
20.94	3594.37
20.96	3901.42
20.98	3919.49
21	3540.18
21.02	3738.86
21.04	3088.63
21.06	3558.24
21.08	3865.3
21.1	3485.99
21.12	3160.88
21.14	3269.25
21.16	3305.37
21.18	3431.81
21.2	3395.68
21.22	3937.55
21.24	3197
21.26	3323.44
21.28	3431.81
21.3	3612.43
21.32	3395.68
21.34	3594.37
21.36	3341.5
21.38	3756.93
21.4	3431.81
21.42	4100.11
21.44	3666.62
21.46	4027.86
21.48	3756.93
21.5	3630.49
21.52	3630.49
21.54	4063.98
21.56	4082.05
21.58	3504.06
21.6	3973.67
21.62	3558.24
21.64	3738.86
21.66	3811.11
21.68	3341.5
21.7	2944.13
21.72	3142.81
21.74	3540.18
21.76	3449.87
21.78	3720.8
21.8	3395.68
21.82	3142.81
21.84	3395.68
21.86	3829.18
21.88	3341.5
21.9	4009.8
21.92	4136.23
21.94	3666.62
21.96	3522.12
21.98	4082.05
22	3106.69
22.02	3774.99
22.04	3540.18
22.06	3793.05
22.08	3467.93
22.1	3377.62
22.12	3341.5
22.14	3558.24
22.16	3377.62
22.18	3287.31
22.2	3287.31
22.22	3160.88
22.24	3124.75
22.26	2781.57
22.28	3395.68
22.3	3359.56
22.32	3558.24
22.34	3323.44
22.36	2962.19
22.38	3124.75
22.4	3088.63
22.42	3106.69
22.44	3233.12
22.46	3160.88
22.48	3504.06
22.5	3305.37
22.52	2871.88
22.54	3233.12
22.56	3124.75
22.58	2998.32
22.6	2998.32
22.62	3052.5
22.64	2926.07
22.66	3251.19
22.68	3359.56
22.7	3341.5
22.72	2944.13
22.74	3341.5
22.76	2998.32
22.78	3630.49
22.8	3269.25
22.82	3178.94
22.84	3287.31
22.86	3251.19
22.88	3269.25
22.9	3648.55
22.92	3034.44
22.94	3540.18
22.96	3522.12
22.98	3233.12
23	3449.87
23.02	3865.3
23.04	2980.25
23.06	3251.19
23.08	3594.37
23.1	2908.01
23.12	3829.18
23.14	3449.87
23.16	3070.56
23.18	3197
23.2	2944.13
23.22	3449.87
23.24	2944.13
23.26	3088.63
23.28	3359.56
23.3	3251.19
23.32	3106.69
23.34	3395.68
23.36	3178.94
23.38	2709.32
23.4	2799.63
23.42	2998.32
23.44	2817.69
23.46	3016.38
23.48	2564.82
23.5	2980.25
23.52	3233.12
23.54	3612.43
23.56	3540.18
23.58	3088.63
23.6	3142.81
23.62	2889.94
23.64	3233.12
23.66	3269.25
23.68	3323.44
23.7	3485.99
23.72	3269.25
23.74	3666.62
23.76	2998.32
23.78	3178.94
23.8	3359.56
23.82	3269.25
23.84	3251.19
23.86	3251.19
23.88	3793.05
23.9	3865.3
23.92	4118.17
23.94	3793.05
23.96	3738.86
23.98	3648.55
24	3793.05
24.02	3666.62
24.04	3811.11
24.06	4425.23
24.08	4009.8
24.1	3883.36
24.12	3774.99
24.14	3738.86
24.16	3431.81
24.18	3070.56
24.2	3413.75
24.22	3088.63
24.24	3016.38
24.26	3178.94
24.28	3630.49
24.3	3413.75
24.32	3124.75
24.34	3467.93
24.36	2908.01
24.38	2998.32
24.4	3413.75
24.42	3178.94
24.44	3106.69
24.46	3160.88
24.48	3287.31
24.5	3341.5
24.52	2600.95
24.54	2962.19
24.56	2889.94
24.58	3070.56
24.6	3251.19
24.62	3287.31
24.64	3052.5
24.66	2727.38
24.68	3052.5
24.7	3251.19
24.72	2889.94
24.74	3124.75
24.76	2763.51
24.78	2781.57
24.8	2944.13
24.82	2564.82
24.84	2835.76
24.86	3016.38
24.88	2474.51
24.9	2727.38
24.92	2510.64
24.94	2420.33
24.96	2853.82
24.98	2908.01
25	2582.89
25.02	2366.14
25.04	2637.07
25.06	2781.57
25.08	2438.39
25.1	2889.94
25.12	2402.27
25.14	2366.14
25.16	2420.33
25.18	2546.76
25.2	2871.88
25.22	2275.83
25.24	2456.45
25.26	2546.76
25.28	2492.58
25.3	2998.32
25.32	2871.88
25.34	2564.82
25.36	2673.2
25.38	2763.51
25.4	2781.57
25.42	2582.89
25.44	2239.71
25.46	2637.07
25.48	2835.76
25.5	2871.88
25.52	2600.95
25.54	2835.76
25.56	2402.27
25.58	3233.12
25.6	2962.19
25.62	2727.38
25.64	3052.5
25.66	3052.5
25.68	2998.32
25.7	2835.76
25.72	3124.75
25.74	3124.75
25.76	3305.37
25.78	2998.32
25.8	3793.05
25.82	3431.81
25.84	3070.56
25.86	3142.81
25.88	3684.68
25.9	3684.68
25.92	3937.55
25.94	4533.6
25.96	3504.06
25.98	3955.61
26	4226.54
26.02	4696.16
26.04	4118.17
26.06	5147.71
26.08	4551.66
26.1	5328.33
26.12	5310.27
26.14	4858.72
26.16	5219.96
26.18	5039.34
26.2	4009.8
26.22	4334.92
26.24	3449.87
26.26	3594.37
26.28	3323.44
26.3	3197
26.32	2889.94
26.34	2889.94
26.36	2727.38
26.38	2944.13
26.4	3142.81
26.42	2799.63
26.44	2998.32
26.46	2781.57
26.48	2167.46
26.5	2402.27
26.52	2438.39
26.54	2619.01
26.56	2582.89
26.58	2655.14
26.6	2510.64
26.62	2275.83
26.64	2257.77
26.66	2275.83
26.68	2203.58
26.7	2239.71
26.72	2293.89
26.74	2438.39
26.76	2420.33
26.78	2221.64
26.8	2059.08
26.82	2185.52
26.84	2257.77
26.86	2203.58
26.88	2149.4
26.9	2510.64
26.92	1697.84
26.94	2600.95
26.96	2384.2
26.98	2185.52
27	2113.27
27.02	2221.64
27.04	2257.77
27.06	2637.07
27.08	2510.64
27.1	1986.84
27.12	2257.77
27.14	2275.83
27.16	2637.07
27.18	2221.64
27.2	2438.39
27.22	2420.33
27.24	2528.7
27.26	2004.9
27.28	2293.89
27.3	2384.2
27.32	2402.27
27.34	2095.21
27.36	2221.64
27.38	2546.76
27.4	2203.58
27.42	2113.27
27.44	2330.02
27.46	2257.77
27.48	1715.9
27.5	2492.58
27.52	2384.2
27.54	2022.96
27.56	2456.45
27.58	1914.59
27.6	1950.71
27.62	1986.84
27.64	2167.46
27.66	1896.53
27.68	2149.4
27.7	2239.71
27.72	2239.71
27.74	2131.33
27.76	1914.59
27.78	1878.46
27.8	2167.46
27.82	2492.58
27.84	1986.84
27.86	2167.46
27.88	2113.27
27.9	2257.77
27.92	2131.33
27.94	2239.71
27.96	2257.77
27.98	1950.71
28	1770.09
28.02	2041.02
28.04	2041.02
28.06	2546.76
28.08	2311.95
28.1	2221.64
28.12	1968.77
28.14	2022.96
28.16	2149.4
28.18	2059.08
28.2	2275.83
28.22	2131.33
28.24	2185.52
28.26	1950.71
28.28	1842.34
28.3	2203.58
28.32	1968.77
28.34	2059.08
28.36	1986.84
28.38	2022.96
28.4	1733.97
28.42	1878.46
28.44	1932.65
28.46	1950.71
28.48	2384.2
28.5	1914.59
28.52	1752.03
28.54	1896.53
28.56	1860.4
28.58	1788.15
28.6	2022.96
28.62	1806.21
28.64	1752.03
28.66	2293.89
28.68	2041.02
28.7	1914.59
28.72	2239.71
28.74	1860.4
28.76	1968.77
28.78	2004.9
28.8	2004.9
28.82	1932.65
28.84	2022.96
28.86	1986.84
28.88	1878.46
28.9	2041.02
28.92	1860.4
28.94	1715.9
28.96	1896.53
28.98	1914.59
29	1661.72
29.02	2077.15
29.04	2185.52
29.06	2311.95
29.08	2022.96
29.1	2293.89
29.12	2022.96
29.14	2041.02
29.16	1950.71
29.18	1950.71
29.2	2113.27
29.22	2149.4
29.24	2330.02
29.26	2185.52
29.28	2059.08
29.3	2456.45
29.32	2438.39
29.34	2745.45
29.36	2600.95
29.38	2709.32
29.4	2510.64
29.42	2293.89
29.44	2438.39
29.46	2113.27
29.48	2420.33
29.5	1878.46
29.52	1860.4
29.54	1824.28
29.56	1770.09
29.58	2113.27
29.6	1896.53
29.62	1860.4
29.64	2257.77
29.66	1932.65
29.68	1842.34
29.7	1914.59
29.72	1806.21
29.74	1788.15
29.76	1661.72
29.78	1932.65
29.8	1553.34
29.82	1878.46
29.84	1914.59
29.86	2022.96
29.88	1824.28
29.9	1679.78
29.92	1625.59
29.94	1770.09
29.96	1986.84
29.98	1860.4
30	2022.96
30.02	1806.21
30.04	1607.53
30.06	1733.97
30.08	1986.84
30.1	2077.15
30.12	1499.16
30.14	1589.47
30.16	1770.09
30.18	1607.53
30.2	1679.78
30.22	1697.84
30.24	1607.53
30.26	2239.71
30.28	1697.84
30.3	1842.34
30.32	1625.59
30.34	1535.28
30.36	1860.4
30.38	1643.66
30.4	1517.22
30.42	1463.03
30.44	2113.27
30.46	1932.65
30.48	1950.71
30.5	1806.21
30.52	1842.34
30.54	2167.46
30.56	2131.33
30.58	1788.15
30.6	1932.65
30.62	2059.08
30.64	2167.46
30.66	2059.08
30.68	1788.15
30.7	1824.28
30.72	2059.08
30.74	1986.84
30.76	1860.4
30.78	2004.9
30.8	1679.78
30.82	1733.97
30.84	1752.03
30.86	1824.28
30.88	1444.97
30.9	1752.03
30.92	1733.97
30.94	1571.41
30.96	1463.03
30.98	1788.15
31	2095.21
31.02	1715.9
31.04	1607.53
31.06	1589.47
31.08	1715.9
31.1	1878.46
31.12	1643.66
31.14	1968.77
31.16	1661.72
31.18	1842.34
31.2	1679.78
31.22	1788.15
31.24	1932.65
31.26	1715.9
31.28	1788.15
31.3	1715.9
31.32	1788.15
31.34	1968.77
31.36	1697.84
31.38	1896.53
31.4	1715.9
31.42	1914.59
31.44	1824.28
31.46	1571.41
31.48	1806.21
31.5	1426.91
31.52	1390.79
31.54	1661.72
31.56	1426.91
31.58	1571.41
31.6	1517.22
31.62	1697.84
31.64	1860.4
31.66	1589.47
31.68	1715.9
31.7	1788.15
31.72	1752.03
31.74	1697.84
31.76	1336.6
31.78	1589.47
31.8	1715.9
31.82	1643.66
31.84	1535.28
31.86	1589.47
31.88	1950.71
31.9	1571.41
31.92	1535.28
31.94	1806.21
31.96	1914.59
31.98	1752.03
32	2059.08
32.02	1625.59
32.04	1679.78
32.06	1697.84
32.08	1679.78
32.1	1517.22
32.12	1932.65
32.14	1806.21
32.16	1770.09
32.18	1986.84
32.2	1733.97
32.22	1733.97
32.24	1788.15
32.26	1697.84
32.28	1661.72
32.3	1752.03
32.32	1932.65
32.34	1535.28
32.36	1715.9
32.38	1697.84
32.4	1661.72
32.42	1553.34
32.44	1354.66
32.46	1354.66
32.48	1643.66
32.5	1788.15
32.52	1589.47
32.54	1264.35
32.56	1481.1
32.58	1354.66
32.6	1246.29
32.62	1336.6
32.64	1499.16
32.66	1607.53
32.68	1282.41
32.7	1300.47
32.72	1426.91
32.74	1589.47
32.76	1589.47
32.78	1300.47
32.8	1553.34
32.82	1824.28
32.84	1625.59
32.86	1571.41
32.88	1354.66
32.9	1372.72
32.92	1824.28
32.94	1300.47
32.96	1390.79
32.98	1571.41
33	1571.41
33.02	1318.54
33.04	1390.79
33.06	1426.91
33.08	1517.22
33.1	1228.23
33.12	1300.47
33.14	1481.1
33.16	1697.84
33.18	1499.16
33.2	1571.41
33.22	1788.15
33.24	1607.53
33.26	1300.47
33.28	1517.22
33.3	1264.35
33.32	1210.16
33.34	1155.98
33.36	1517.22
33.38	1824.28
33.4	1300.47
33.42	1318.54
33.44	1426.91
33.46	1282.41
33.48	1463.03
33.5	1318.54
33.52	1174.04
33.54	1318.54
33.56	1354.66
33.58	1481.1
33.6	1192.1
33.62	1571.41
33.64	1607.53
33.66	1282.41
33.68	1408.85
33.7	1336.6
33.72	1643.66
33.74	1300.47
33.76	1029.54
33.78	1517.22
33.8	1336.6
33.82	1300.47
33.84	1426.91
33.86	1444.97
33.88	1354.66
33.9	1481.1
33.92	1824.28
33.94	1282.41
33.96	1264.35
33.98	1155.98
34	1408.85
34.02	1481.1
34.04	1083.73
34.06	1137.92
34.08	1517.22
34.1	1607.53
34.12	1463.03
34.14	1426.91
34.16	1607.53
34.18	1535.28
34.2	1463.03
34.22	1770.09
34.24	1589.47
34.26	1643.66
34.28	1336.6
34.3	1535.28
34.32	1733.97
34.34	1535.28
34.36	1607.53
34.38	1607.53
34.4	1192.1
34.42	1354.66
34.44	1571.41
34.46	1390.79
34.48	1210.16
34.5	1282.41
34.52	1354.66
34.54	1408.85
34.56	1481.1
34.58	1408.85
34.6	1625.59
34.62	1661.72
34.64	1192.1
34.66	1137.92
34.68	1065.67
34.7	1282.41
34.72	1444.97
34.74	1607.53
34.76	1607.53
34.78	1426.91
34.8	1065.67
34.82	1372.72
34.84	1463.03
34.86	1282.41
34.88	1029.54
34.9	1137.92
34.92	1083.73
34.94	1282.41
34.96	1264.35
34.98	1408.85
35	1318.54
35.02	1300.47
35.04	1246.29
35.06	1210.16
35.08	1318.54
35.1	1354.66
35.12	1318.54
35.14	1318.54
35.16	1264.35
35.18	1137.92
35.2	1155.98
35.22	1137.92
35.24	1065.67
35.26	1282.41
35.28	1354.66
35.3	1137.92
35.32	1372.72
35.34	1336.6
35.36	1282.41
35.38	1390.79
35.4	1192.1
35.42	1264.35
35.44	1354.66
35.46	1192.1
35.48	1228.23
35.5	1444.97
35.52	1264.35
35.54	1336.6
35.56	1300.47
35.58	1246.29
35.6	1318.54
35.62	903.107
35.64	1246.29
35.66	1246.29
35.68	1300.47
35.7	1589.47
35.72	1336.6
35.74	1444.97
35.76	1372.72
35.78	1119.85
35.8	1011.48
35.82	1300.47
35.84	1137.92
35.86	1210.16
35.88	1228.23
35.9	1372.72
35.92	1119.85
35.94	1354.66
35.96	1246.29
35.98	1463.03
36	1246.29
36.02	1372.72
36.04	1192.1
36.06	1137.92
36.08	1499.16
36.1	1264.35
36.12	1083.73
36.14	1426.91
36.16	1264.35
36.18	1643.66
36.2	1318.54
36.22	1553.34
36.24	1192.1
36.26	1174.04
36.28	1318.54
36.3	1065.67
36.32	1517.22
36.34	1192.1
36.36	1155.98
36.38	1174.04
36.4	1264.35
36.42	1192.1
36.44	1390.79
36.46	1264.35
36.48	1192.1
36.5	1101.79
36.52	1228.23
36.54	1155.98
36.56	1065.67
36.58	1282.41
36.6	1246.29
36.62	1336.6
36.64	939.232
36.66	1011.48
36.68	1210.16
36.7	1192.1
36.72	1155.98
36.74	993.418
36.76	1137.92
36.78	1174.04
36.8	1065.67
36.82	1101.79
36.84	939.232
36.86	1174.04
36.88	1336.6
36.9	975.356
36.92	1282.41
36.94	1065.67
36.96	1517.22
36.98	1553.34
37	1318.54
37.02	1408.85
37.04	1011.48
37.06	1444.97
37.08	1210.16
37.1	1661.72
37.12	1300.47
37.14	1499.16
37.16	1318.54
37.18	1228.23
37.2	1264.35
37.22	1047.6
37.24	1011.48
37.26	1174.04
37.28	1210.16
37.3	1228.23
37.32	1264.35
37.34	1246.29
37.36	1282.41
37.38	1210.16
37.4	1047.6
37.42	1300.47
37.44	1463.03
37.46	1228.23
37.48	1354.66
37.5	1011.48
37.52	1228.23
37.54	1300.47
37.56	1210.16
37.58	1119.85
37.6	1192.1
37.62	903.107
37.64	1192.1
37.66	1390.79
37.68	1155.98
37.7	1390.79
37.72	1354.66
37.74	1011.48
37.76	1210.16
37.78	1246.29
37.8	1318.54
37.82	1499.16
37.84	1264.35
37.86	1101.79
37.88	1192.1
37.9	1210.16
37.92	1137.92
37.94	1228.23
37.96	1011.48
37.98	1246.29
38	1029.54
38.02	1228.23
38.04	1336.6
38.06	1210.16
38.08	1174.04
38.1	1336.6
38.12	957.294
38.14	1282.41
38.16	1300.47
38.18	1174.04
38.2	1155.98
38.22	1192.1
38.24	1029.54
38.26	1228.23
38.28	1155.98
38.3	1228.23
38.32	1192.1
38.34	1607.53
38.36	1029.54
38.38	1228.23
38.4	1029.54
38.42	1228.23
38.44	1155.98
38.46	1246.29
38.48	1246.29
38.5	1210.16
38.52	1119.85
38.54	1264.35
38.56	1336.6
38.58	1444.97
38.6	1336.6
38.62	1625.59
38.64	1607.53
38.66	1137.92
38.68	1137.92
38.7	1228.23
38.72	1192.1
38.74	1228.23
38.76	1192.1
38.78	1625.59
38.8	1354.66
38.82	1083.73
38.84	1282.41
38.86	957.294
38.88	1101.79
38.9	1047.6
38.92	1083.73
38.94	1192.1
38.96	1174.04
38.98	1065.67
39	1101.79
39.02	903.107
39.04	1047.6
39.06	1065.67
39.08	1246.29
39.1	1137.92
39.12	939.232
39.14	1210.16
39.16	1101.79
39.18	1174.04
39.2	1155.98
39.22	1047.6
39.24	1192.1
39.26	1137.92
39.28	1426.91
39.3	1517.22
39.32	903.107
39.34	1029.54
39.36	903.107
39.38	848.921
39.4	1155.98
39.42	993.418
39.44	885.045
39.46	957.294
39.48	1101.79
39.5	1174.04
39.52	921.169
39.54	1336.6
39.56	1210.16
39.58	1155.98
39.6	903.107
39.62	1300.47
39.64	1137.92
39.66	812.797
39.68	1083.73
39.7	1264.35
39.72	1354.66
39.74	1065.67
39.76	1083.73
39.78	921.169
39.8	1029.54
39.82	1137.92
39.84	1228.23
39.86	1119.85
39.88	939.232
39.9	1210.16
39.92	866.983
39.94	1174.04
39.96	1174.04
39.98	1372.72
40	1137.92
40.02	1192.1
40.04	903.107
40.06	885.045
40.08	1210.16
40.1	1318.54
40.12	1011.48
40.14	1210.16
40.16	1047.6
40.18	1047.6
40.2	1047.6
40.22	1192.1
40.24	1228.23
40.26	975.356
40.28	1318.54
40.3	1119.85
40.32	1137.92
40.34	1029.54
40.36	939.232
40.38	1228.23
40.4	1119.85
40.42	1137.92
40.44	1065.67
40.46	1155.98
40.48	993.418
40.5	1083.73
40.52	1083.73
40.54	1318.54
40.56	1011.48
40.58	1029.54
40.6	939.232
40.62	975.356
40.64	1083.73
40.66	1011.48
40.68	1174.04
40.7	1137.92
40.72	1029.54
40.74	1318.54
40.76	1282.41
40.78	1264.35
40.8	758.61
40.82	1137.92
40.84	1065.67
40.86	1264.35
40.88	1300.47
40.9	1336.6
40.92	957.294
40.94	1029.54
40.96	1137.92
40.98	1390.79
41	1101.79
41.02	1137.92
41.04	1336.6
41.06	1210.16
41.08	1282.41
41.1	1047.6
41.12	1390.79
41.14	1354.66
41.16	1192.1
41.18	1336.6
41.2	1228.23
41.22	1047.6
41.24	830.859
41.26	1228.23
41.28	1083.73
41.3	1137.92
41.32	1174.04
41.34	1119.85
41.36	1155.98
41.38	1029.54
41.4	993.418
41.42	1228.23
41.44	1029.54
41.46	848.921
41.48	1228.23
41.5	1137.92
41.52	1246.29
41.54	1246.29
41.56	1137.92
41.58	1065.67
41.6	776.672
41.62	1065.67
41.64	1083.73
41.66	1065.67
41.68	1336.6
41.7	830.859
41.72	921.169
41.74	903.107
41.76	903.107
41.78	1192.1
41.8	1119.85
41.82	1264.35
41.84	1210.16
41.86	1155.98
41.88	1354.66
41.9	1011.48
41.92	1228.23
41.94	939.232
41.96	1065.67
41.98	1029.54
42	1047.6
42.02	758.61
42.04	1119.85
42.06	921.169
42.08	1174.04
42.1	975.356
42.12	1083.73
42.14	1372.72
42.16	1047.6
42.18	1101.79
42.2	1011.48
42.22	1174.04
42.24	812.797
42.26	957.294
42.28	1047.6
42.3	903.107
42.32	957.294
42.34	1155.98
42.36	1011.48
42.38	993.418
42.4	1029.54
42.42	1192.1
42.44	1155.98
42.46	1174.04
42.48	1318.54
42.5	993.418
42.52	1101.79
42.54	1137.92
42.56	957.294
42.58	1228.23
42.6	1119.85
42.62	1192.1
42.64	1137.92
42.66	1101.79
42.68	975.356
42.7	939.232
42.72	1155.98
42.74	975.356
42.76	939.232
42.78	1047.6
42.8	1101.79
42.82	957.294
42.84	1318.54
42.86	1029.54
42.88	1155.98
42.9	1137.92
42.92	1119.85
42.94	1137.92
42.96	1155.98
42.98	1047.6
43	939.232
43.02	957.294
43.04	993.418
43.06	1300.47
43.08	1264.35
43.1	1192.1
43.12	1155.98
43.14	1318.54
43.16	1119.85
43.18	1517.22
43.2	1318.54
43.22	1047.6
43.24	1228.23
43.26	1101.79
43.28	1264.35
43.3	1517.22
43.32	1210.16
43.34	1155.98
43.36	957.294
43.38	1155.98
43.4	1155.98
43.42	903.107
43.44	1083.73
43.46	975.356
43.48	1174.04
43.5	1174.04
43.52	975.356
43.54	939.232
43.56	1011.48
43.58	1101.79
43.6	1101.79
43.62	1029.54
43.64	1065.67
43.66	1246.29
43.68	903.107
43.7	1119.85
43.72	993.418
43.74	921.169
43.76	848.921
43.78	921.169
43.8	993.418
43.82	993.418
43.84	975.356
43.86	1029.54
43.88	776.672
43.9	1047.6
43.92	866.983
43.94	1011.48
43.96	1065.67
43.98	939.232
44	993.418
44.02	1137.92
44.04	1011.48
44.06	975.356
44.08	939.232
44.1	1029.54
44.12	866.983
44.14	776.672
44.16	903.107
44.18	848.921
44.2	1083.73
44.22	939.232
44.24	776.672
44.26	1011.48
44.28	957.294
44.3	794.734
44.32	975.356
44.34	957.294
44.36	957.294
44.38	1137.92
44.4	1029.54
44.42	921.169
44.44	1029.54
44.46	848.921
44.48	921.169
44.5	1228.23
44.52	1210.16
44.54	1029.54
44.56	957.294
44.58	758.61
44.6	812.797
44.62	921.169
44.64	1083.73
44.66	939.232
44.68	993.418
44.7	1192.1
44.72	975.356
44.74	957.294
44.76	1047.6
44.78	975.356
44.8	957.294
44.82	975.356
44.84	939.232
44.86	1047.6
44.88	866.983
44.9	993.418
44.92	939.232
44.94	885.045
44.96	975.356
44.98	1065.67
45	993.418
45.02	993.418
45.04	830.859
45.06	812.797
45.08	1011.48
45.1	1101.79
45.12	1101.79
45.14	758.61
45.16	1047.6
45.18	722.486
45.2	1029.54
45.22	957.294
45.24	957.294
45.26	812.797
45.28	1137.92
45.3	1047.6
45.32	921.169
45.34	1065.67
45.36	939.232
45.38	740.548
45.4	1119.85
45.42	1011.48
45.44	1174.04
45.46	1047.6
45.48	885.045
45.5	650.237
45.52	848.921
45.54	1047.6
45.56	848.921
45.58	957.294
45.6	1119.85
45.62	993.418
45.64	975.356
45.66	1065.67
45.68	975.356
45.7	921.169
45.72	903.107
45.74	830.859
45.76	1101.79
45.78	1065.67
45.8	939.232
45.82	848.921
45.84	993.418
45.86	993.418
45.88	830.859
45.9	939.232
45.92	830.859
45.94	1047.6
45.96	776.672
45.98	939.232
46	975.356
46.02	830.859
46.04	758.61
46.06	722.486
46.08	848.921
46.1	758.61
46.12	957.294
46.14	1083.73
46.16	903.107
46.18	993.418
46.2	957.294
46.22	993.418
46.24	939.232
46.26	1047.6
46.28	1047.6
46.3	848.921
46.32	885.045
46.34	993.418
46.36	1047.6
46.38	866.983
46.4	1011.48
46.42	885.045
46.44	794.734
46.46	758.61
46.48	740.548
46.5	686.362
46.52	830.859
46.54	1083.73
46.56	903.107
46.58	1047.6
46.6	975.356
46.62	1011.48
46.64	848.921
46.66	794.734
46.68	758.61
46.7	1065.67
46.72	1101.79
46.74	776.672
46.76	1011.48
46.78	848.921
46.8	1192.1
46.82	866.983
46.84	1011.48
46.86	939.232
46.88	975.356
46.9	903.107
46.92	885.045
46.94	939.232
46.96	1047.6
46.98	1029.54
47	993.418
47.02	1029.54
47.04	812.797
47.06	975.356
47.08	722.486
47.1	957.294
47.12	686.362
47.14	722.486
47.16	1047.6
47.18	776.672
47.2	758.61
47.22	866.983
47.24	848.921
47.26	993.418
47.28	523.802
47.3	812.797
47.32	776.672
47.34	830.859
47.36	740.548
47.38	722.486
47.4	939.232
47.42	939.232
47.44	957.294
47.46	812.797
47.48	758.61
47.5	885.045
47.52	939.232
47.54	957.294
47.56	1011.48
47.58	776.672
47.6	885.045
47.62	885.045
47.64	885.045
47.66	632.175
47.68	686.362
47.7	704.424
47.72	812.797
47.74	776.672
47.76	866.983
47.78	939.232
47.8	1011.48
47.82	704.424
47.84	722.486
47.86	903.107
47.88	885.045
47.9	975.356
47.92	848.921
47.94	632.175
47.96	668.299
47.98	830.859
48	921.169
48.02	668.299
48.04	668.299
48.06	722.486
48.08	794.734
48.1	722.486
48.12	885.045
48.14	704.424
48.16	848.921
48.18	794.734
48.2	776.672
48.22	686.362
48.24	921.169
48.26	668.299
48.28	650.237
48.3	830.859
48.32	776.672
48.34	650.237
48.36	848.921
48.38	722.486
48.4	812.797
48.42	848.921
48.44	830.859
48.46	776.672
48.48	722.486
48.5	794.734
48.52	939.232
48.54	794.734
48.56	848.921
48.58	939.232
48.6	794.734
48.62	812.797
48.64	776.672
48.66	686.362
48.68	885.045
48.7	921.169
48.72	722.486
48.74	812.797
48.76	1011.48
48.78	740.548
48.8	740.548
48.82	686.362
48.84	686.362
48.86	866.983
48.88	614.113
48.9	758.61
48.92	848.921
48.94	704.424
48.96	848.921
48.98	704.424
49	704.424
49.02	577.989
49.04	632.175
49.06	812.797
49.08	704.424
49.1	650.237
49.12	704.424
49.14	866.983
49.16	686.362
49.18	596.051
49.2	668.299
49.22	740.548
49.24	848.921
49.26	722.486
49.28	487.678
49.3	650.237
49.32	776.672
49.34	650.237
49.36	686.362
49.38	758.61
49.4	650.237
49.42	541.864
49.44	650.237
49.46	614.113
49.48	704.424
49.5	632.175
49.52	939.232
49.54	722.486
49.56	758.61
49.58	740.548
49.6	776.672
49.62	812.797
49.64	668.299
49.66	794.734
49.68	740.548
49.7	794.734
49.72	758.61
49.74	885.045
49.76	668.299
49.78	632.175
49.8	866.983
49.82	740.548
49.84	993.418
49.86	686.362
49.88	686.362
49.9	686.362
49.92	704.424
49.94	686.362
49.96	740.548
49.98	921.169
50	794.734
50.02	596.051
50.04	559.927
50.06	596.051
50.08	794.734
50.1	1047.6
50.12	559.927
50.14	523.802
50.16	704.424
50.18	686.362
50.2	632.175
50.22	830.859
50.24	794.734
50.26	451.554
50.28	812.797
50.3	632.175
50.32	523.802
50.34	758.61
50.36	541.864
50.38	758.61
50.4	866.983
50.42	848.921
50.44	740.548
50.46	650.237
50.48	541.864
50.5	686.362
50.52	541.864
50.54	794.734
50.56	758.61
50.58	668.299
50.6	722.486
50.62	686.362
50.64	740.548
50.66	596.051
50.68	848.921
50.7	614.113
50.72	505.74
50.74	632.175
50.76	848.921
50.78	632.175
50.8	668.299
50.82	487.678
50.84	596.051
50.86	614.113
50.88	559.927
50.9	866.983
50.92	632.175
50.94	523.802
50.96	704.424
50.98	794.734
51	650.237
51.02	758.61
51.04	758.61
51.06	650.237
51.08	740.548
51.1	740.548
51.12	577.989
51.14	559.927
51.16	722.486
51.18	830.859
51.2	758.61
51.22	668.299
51.24	577.989
51.26	650.237
51.28	740.548
51.3	939.232
51.32	614.113
51.34	596.051
51.36	596.051
51.38	776.672
51.4	812.797
51.42	704.424
51.44	559.927
51.46	1029.54
51.48	614.113
51.5	776.672
51.52	758.61
51.54	812.797
51.56	523.802
51.58	541.864
51.6	794.734
51.62	650.237
51.64	758.61
51.66	596.051
51.68	614.113
51.7	596.051
51.72	614.113
51.74	650.237
51.76	614.113
51.78	632.175
51.8	614.113
51.82	523.802
51.84	668.299
51.86	668.299
51.88	668.299
51.9	686.362
51.92	559.927
51.94	848.921
51.96	776.672
51.98	632.175
52	523.802
52.02	704.424
52.04	469.616
52.06	758.61
52.08	559.927
52.1	505.74
52.12	632.175
52.14	523.802
52.16	686.362
52.18	596.051
52.2	704.424
52.22	758.61
52.24	722.486
52.26	650.237
52.28	740.548
52.3	559.927
52.32	740.548
52.34	830.859
52.36	596.051
52.38	704.424
52.4	559.927
52.42	740.548
52.44	614.113
52.46	740.548
52.48	866.983
52.5	722.486
52.52	632.175
52.54	758.61
52.56	704.424
52.58	632.175
52.6	722.486
52.62	686.362
52.64	975.356
52.66	722.486
52.68	614.113
52.7	577.989
52.72	740.548
52.74	668.299
52.76	650.237
52.78	650.237
52.8	686.362
52.82	758.61
52.84	668.299
52.86	704.424
52.88	758.61
52.9	577.989
52.92	541.864
52.94	577.989
52.96	668.299
52.98	650.237
53	487.678
53.02	740.548
53.04	704.424
53.06	487.678
53.08	704.424
53.1	487.678
53.12	776.672
53.14	541.864
53.16	668.299
53.18	794.734
53.2	686.362
53.22	559.927
53.24	523.802
53.26	614.113
53.28	668.299
53.3	686.362
53.32	505.74
53.34	469.616
53.36	505.74
53.38	776.672
53.4	577.989
53.42	614.113
53.44	794.734
53.46	487.678
53.48	559.927
53.5	614.113
53.52	469.616
53.54	577.989
53.56	577.989
53.58	668.299
53.6	523.802
53.62	668.299
53.64	596.051
53.66	559.927
53.68	632.175
53.7	577.989
53.72	541.864
53.74	577.989
53.76	614.113
53.78	487.678
53.8	596.051
53.82	559.927
53.84	523.802
53.86	668.299
53.88	397.367
53.9	650.237
53.92	541.864
53.94	523.802
53.96	505.74
53.98	577.989
54	541.864
54.02	650.237
54.04	469.616
54.06	487.678
54.08	686.362
54.1	415.429
54.12	541.864
54.14	541.864
54.16	704.424
54.18	704.424
54.2	686.362
54.22	577.989
54.24	614.113
54.26	577.989
54.28	541.864
54.3	487.678
54.32	451.554
54.34	686.362
54.36	577.989
54.38	505.74
54.4	686.362
54.42	523.802
54.44	704.424
54.46	596.051
54.48	596.051
54.5	487.678
54.52	505.74
54.54	577.989
54.56	523.802
54.58	577.989
54.6	650.237
54.62	596.051
54.64	433.492
54.66	415.429
54.68	505.74
54.7	577.989
54.72	577.989
54.74	541.864
54.76	505.74
54.78	541.864
54.8	668.299
54.82	487.678
54.84	758.61
54.86	650.237
54.88	559.927
54.9	596.051
54.92	614.113
54.94	794.734
54.96	722.486
54.98	451.554
55	523.802
55.02	740.548
55.04	433.492
55.06	541.864
55.08	487.678
55.1	668.299
55.12	740.548
55.14	559.927
55.16	433.492
55.18	704.424
55.2	632.175
55.22	559.927
55.24	541.864
55.26	830.859
55.28	505.74
55.3	559.927
55.32	668.299
55.34	541.864
55.36	596.051
55.38	704.424
55.4	686.362
55.42	614.113
55.44	487.678
55.46	650.237
55.48	505.74
55.5	704.424
55.52	505.74
55.54	559.927
55.56	559.927
55.58	433.492
55.6	650.237
55.62	668.299
55.64	577.989
55.66	614.113
55.68	559.927
55.7	596.051
55.72	451.554
55.74	596.051
55.76	505.74
55.78	577.989
55.8	487.678
55.82	596.051
55.84	523.802
55.86	758.61
55.88	668.299
55.9	722.486
55.92	704.424
55.94	505.74
55.96	668.299
55.98	559.927
56	830.859
56.02	632.175
56.04	541.864
56.06	848.921
56.08	668.299
56.1	740.548
56.12	686.362
56.14	541.864
56.16	451.554
56.18	686.362
56.2	668.299
56.22	668.299
56.24	505.74
56.26	632.175
56.28	704.424
56.3	596.051
56.32	614.113
56.34	704.424
56.36	668.299
56.38	415.429
56.4	686.362
56.42	686.362
56.44	559.927
56.46	722.486
56.48	794.734
56.5	577.989
56.52	379.305
56.54	650.237
56.56	541.864
56.58	505.74
56.6	577.989
56.62	668.299
56.64	668.299
56.66	523.802
56.68	686.362
56.7	704.424
56.72	523.802
56.74	559.927
56.76	451.554
56.78	704.424
56.8	577.989
56.82	577.989
56.84	596.051
56.86	614.113
56.88	469.616
56.9	523.802
56.92	650.237
56.94	559.927
56.96	541.864
56.98	433.492
57	307.056
57.02	523.802
57.04	523.802
57.06	379.305
57.08	577.989
57.1	758.61
57.12	505.74
57.14	559.927
57.16	577.989
57.18	469.616
57.2	704.424
57.22	632.175
57.24	451.554
57.26	559.927
57.28	686.362
57.3	379.305
57.32	487.678
57.34	487.678
57.36	559.927
57.38	650.237
57.4	397.367
57.42	505.74
57.44	523.802
57.46	722.486
57.48	451.554
57.5	577.989
57.52	469.616
57.54	596.051
57.56	505.74
57.58	505.74
57.6	487.678
57.62	668.299
57.64	451.554
57.66	469.616
57.68	487.678
57.7	596.051
57.72	487.678
57.74	397.367
57.76	776.672
57.78	596.051
57.8	523.802
57.82	668.299
57.84	505.74
57.86	469.616
57.88	686.362
57.9	415.429
57.92	415.429
57.94	451.554
57.96	830.859
57.98	523.802
58	415.429
58.02	451.554
58.04	469.616
58.06	469.616
58.08	577.989
58.1	361.243
58.12	632.175
58.14	596.051
58.16	577.989
58.18	505.74
58.2	596.051
58.22	577.989
58.24	577.989
58.26	577.989
58.28	397.367
58.3	397.367
58.32	722.486
58.34	686.362
58.36	559.927
58.38	397.367
58.4	505.74
58.42	451.554
58.44	541.864
58.46	451.554
58.48	614.113
58.5	523.802
58.52	487.678
58.54	469.616
58.56	614.113
58.58	559.927
58.6	740.548
58.62	541.864
58.64	559.927
58.66	559.927
58.68	433.492
58.7	541.864
58.72	487.678
58.74	523.802
58.76	523.802
58.78	505.74
58.8	577.989
58.82	541.864
58.84	541.864
58.86	469.616
58.88	505.74
58.9	577.989
58.92	361.243
58.94	505.74
58.96	668.299
58.98	559.927
59	505.74
59.02	722.486
59.04	704.424
59.06	577.989
59.08	379.305
59.1	559.927
59.12	469.616
59.14	433.492
59.16	559.927
59.18	577.989
59.2	559.927
59.22	559.927
59.24	596.051
59.26	704.424
59.28	596.051
59.3	668.299
59.32	614.113
59.34	577.989
59.36	559.927
59.38	614.113
59.4	632.175
59.42	541.864
59.44	559.927
59.46	559.927
59.48	469.616
59.5	523.802
59.52	632.175
59.54	614.113
59.56	614.113
59.58	487.678
59.6	650.237
59.62	577.989
59.64	614.113
59.66	433.492
59.68	415.429
59.7	668.299
59.72	632.175
59.74	632.175
59.76	505.74
59.78	614.113
59.8	523.802
59.82	632.175
59.84	487.678
59.86	505.74
59.88	487.678
59.9	415.429
59.92	505.74
59.94	577.989
59.96	577.989
59.98	559.927
60	505.74

270.932
59.96	469.616
59.98	379.305
60	361.243
