Sample	 
Comments	 
Filename	C:\Data\西出研\梅木\20211102オペ\LiFTFSI30wt_03_0003_0079-1_C_2θ.raw
Goniometer	SmartLab(In-plane)
Attachment	標準Zステージ
Monochromater	None
X	0
Y	0
Z	0.01652
ScanningMode	2Theta
ScanningType	Continuos Scanning
X-Ray	40kV/30mA
入射スリット	0.300mm
受光スリット1	20.000mm
受光スリット2	20.000mm
None	
Start	5
Stop	60
Step	0.02
Speed	21.6746
Theta	0
5	5978.57
5.02	5653.45
5.04	5436.71
5.06	5761.82
5.08	5816.01
5.1	5599.27
5.12	5563.14
5.14	5201.9
5.16	5725.7
5.18	5382.52
5.2	5888.26
5.22	5671.51
5.24	5545.08
5.26	4786.47
5.28	5978.57
5.3	5400.58
5.32	5165.77
5.34	5508.95
5.36	5617.33
5.38	5093.53
5.4	5454.77
5.42	5093.53
5.44	5635.39
5.46	5165.77
5.48	4858.72
5.5	5292.21
5.52	5725.7
5.54	5490.89
5.56	5436.71
5.58	6249.5
5.6	5490.89
5.62	5635.39
5.64	5418.64
5.66	5617.33
5.68	4967.09
5.7	5779.89
5.72	5924.38
5.74	5165.77
5.76	5725.7
5.78	5201.9
5.8	5364.46
5.82	5834.07
5.84	5003.21
5.86	5003.21
5.88	5454.77
5.9	5328.33
5.92	5274.15
5.94	5256.08
5.96	5689.58
5.98	5075.46
6	5274.15
6.02	5418.64
6.04	4876.78
6.06	5707.64
6.08	5418.64
6.1	4822.59
6.12	4804.53
6.14	5201.9
6.16	5021.28
6.18	5165.77
6.2	5256.08
6.22	5328.33
6.24	5292.21
6.26	5093.53
6.28	5183.84
6.3	5057.4
6.32	4804.53
6.34	4894.84
6.36	4569.72
6.38	4894.84
6.4	5021.28
6.42	5075.46
6.44	5021.28
6.46	4678.1
6.48	5165.77
6.5	5201.9
6.52	4605.85
6.54	4714.22
6.56	5147.71
6.58	5165.77
6.6	4804.53
6.62	5436.71
6.64	5400.58
6.66	4876.78
6.68	4894.84
6.7	5219.96
6.72	5454.77
6.74	4822.59
6.76	5039.34
6.78	5400.58
6.8	4930.97
6.82	5256.08
6.84	5003.21
6.86	5292.21
6.88	4280.73
6.9	4985.15
6.92	4623.91
6.94	5057.4
6.96	5003.21
6.98	4894.84
7	5328.33
7.02	5454.77
7.04	4822.59
7.06	4515.54
7.08	4732.28
7.1	4334.92
7.12	4949.03
7.14	4949.03
7.16	4623.91
7.18	4226.54
7.2	4858.72
7.22	5454.77
7.24	5129.65
7.26	4840.66
7.28	4750.34
7.3	4063.98
7.32	4985.15
7.34	5617.33
7.36	4912.9
7.38	4641.97
7.4	4840.66
7.42	5039.34
7.44	5147.71
7.46	5201.9
7.48	5129.65
7.5	4623.91
7.52	4768.41
7.54	4768.41
7.56	4822.59
7.58	5075.46
7.6	5165.77
7.62	5201.9
7.64	4443.29
7.66	4786.47
7.68	5075.46
7.7	4912.9
7.72	5147.71
7.74	5129.65
7.76	4822.59
7.78	4714.22
7.8	4425.23
7.82	5057.4
7.84	4371.04
7.86	4949.03
7.88	5147.71
7.9	5165.77
7.92	4569.72
7.94	4750.34
7.96	4840.66
7.98	5472.83
8	5346.4
8.02	4894.84
8.04	4587.79
8.06	5021.28
8.08	4876.78
8.1	4551.66
8.12	4497.47
8.14	4696.16
8.16	4623.91
8.18	4334.92
8.2	4678.1
8.22	4840.66
8.24	4587.79
8.26	4822.59
8.28	4840.66
8.3	4822.59
8.32	4786.47
8.34	4858.72
8.36	4894.84
8.38	4479.41
8.4	4208.48
8.42	4949.03
8.44	4298.79
8.46	4587.79
8.48	4714.22
8.5	4479.41
8.52	4985.15
8.54	5039.34
8.56	5382.52
8.58	5201.9
8.6	5238.02
8.62	5147.71
8.64	5454.77
8.66	5111.59
8.68	4876.78
8.7	5364.46
8.72	4840.66
8.74	4461.35
8.76	4930.97
8.78	4425.23
8.8	5093.53
8.82	4371.04
8.84	4714.22
8.86	4696.16
8.88	4280.73
8.9	5057.4
8.92	4461.35
8.94	3991.73
8.96	4569.72
8.98	4497.47
9	4262.67
9.02	4443.29
9.04	4641.97
9.06	4280.73
9.08	5003.21
9.1	4280.73
9.12	4226.54
9.14	5093.53
9.16	4804.53
9.18	4515.54
9.2	4443.29
9.22	4316.85
9.24	4605.85
9.26	4569.72
9.28	4641.97
9.3	4298.79
9.32	4732.28
9.34	4822.59
9.36	4623.91
9.38	3648.55
9.4	4190.42
9.42	4063.98
9.44	4407.16
9.46	4569.72
9.48	4497.47
9.5	4371.04
9.52	4136.23
9.54	4985.15
9.56	4696.16
9.58	4768.41
9.6	4533.6
9.62	4894.84
9.64	4515.54
9.66	4443.29
9.68	4497.47
9.7	4443.29
9.72	4876.78
9.74	4208.48
9.76	4533.6
9.78	4858.72
9.8	4587.79
9.82	4678.1
9.84	4660.03
9.86	4714.22
9.88	4371.04
9.9	4244.6
9.92	4298.79
9.94	4768.41
9.96	4371.04
9.98	4967.09
10	4280.73
10.02	4334.92
10.04	4804.53
10.06	4443.29
10.08	4515.54
10.1	4298.79
10.12	4027.86
10.14	4389.1
10.16	4082.05
10.18	4389.1
10.2	4569.72
10.22	4497.47
10.24	4425.23
10.26	4587.79
10.28	4587.79
10.3	4443.29
10.32	4479.41
10.34	4804.53
10.36	4786.47
10.38	4894.84
10.4	4732.28
10.42	4641.97
10.44	4533.6
10.46	4786.47
10.48	4551.66
10.5	4226.54
10.52	4714.22
10.54	4136.23
10.56	4371.04
10.58	4515.54
10.6	4840.66
10.62	4172.36
10.64	4804.53
10.66	4371.04
10.68	4280.73
10.7	4461.35
10.72	4407.16
10.74	4154.29
10.76	4226.54
10.78	5021.28
10.8	4641.97
10.82	4497.47
10.84	4714.22
10.86	4967.09
10.88	4641.97
10.9	4623.91
10.92	4461.35
10.94	4461.35
10.96	4190.42
10.98	4280.73
11	4768.41
11.02	4389.1
11.04	3901.42
11.06	3829.18
11.08	4641.97
11.1	4678.1
11.12	4479.41
11.14	4244.6
11.16	4533.6
11.18	4461.35
11.2	4461.35
11.22	4172.36
11.24	4027.86
11.26	4714.22
11.28	4389.1
11.3	4840.66
11.32	4280.73
11.34	4371.04
11.36	4967.09
11.38	4443.29
11.4	4371.04
11.42	4334.92
11.44	4136.23
11.46	4389.1
11.48	4334.92
11.5	4208.48
11.52	4136.23
11.54	4118.17
11.56	4280.73
11.58	4407.16
11.6	4316.85
11.62	5003.21
11.64	4497.47
11.66	4352.98
11.68	4407.16
11.7	4714.22
11.72	4479.41
11.74	4389.1
11.76	4407.16
11.78	4714.22
11.8	4154.29
11.82	4371.04
11.84	4641.97
11.86	4425.23
11.88	4334.92
11.9	4569.72
11.92	4154.29
11.94	4280.73
11.96	4768.41
11.98	4894.84
12	4786.47
12.02	4461.35
12.04	3991.73
12.06	4515.54
12.08	4569.72
12.1	4298.79
12.12	4912.9
12.14	4479.41
12.16	4949.03
12.18	4605.85
12.2	4696.16
12.22	4515.54
12.24	4497.47
12.26	3756.93
12.28	4334.92
12.3	4533.6
12.32	4298.79
12.34	4678.1
12.36	4190.42
12.38	4750.34
12.4	4461.35
12.42	4371.04
12.44	4533.6
12.46	4172.36
12.48	4750.34
12.5	4804.53
12.52	4569.72
12.54	4515.54
12.56	3829.18
12.58	4949.03
12.6	4316.85
12.62	4714.22
12.64	4497.47
12.66	3973.67
12.68	4226.54
12.7	4371.04
12.72	5003.21
12.74	4750.34
12.76	4822.59
12.78	4858.72
12.8	4425.23
12.82	4750.34
12.84	4641.97
12.86	4515.54
12.88	4786.47
12.9	5490.89
12.92	4641.97
12.94	5021.28
12.96	5057.4
12.98	4912.9
13	4190.42
13.02	4967.09
13.04	4678.1
13.06	4660.03
13.08	4623.91
13.1	4587.79
13.12	4371.04
13.14	4750.34
13.16	4063.98
13.18	4732.28
13.2	4605.85
13.22	4316.85
13.24	4551.66
13.26	4840.66
13.28	4569.72
13.3	3901.42
13.32	4623.91
13.34	4479.41
13.36	3829.18
13.38	3702.74
13.4	4226.54
13.42	3937.55
13.44	4533.6
13.46	4425.23
13.48	4118.17
13.5	4280.73
13.52	4623.91
13.54	4587.79
13.56	4461.35
13.58	3955.61
13.6	4226.54
13.62	4425.23
13.64	4443.29
13.66	3937.55
13.68	4623.91
13.7	4461.35
13.72	3955.61
13.74	4443.29
13.76	4407.16
13.78	4027.86
13.8	3919.49
13.82	4009.8
13.84	4045.92
13.86	4244.6
13.88	4154.29
13.9	4100.11
13.92	4244.6
13.94	4045.92
13.96	4244.6
13.98	4208.48
14	4082.05
14.02	3865.3
14.04	4009.8
14.06	4479.41
14.08	4804.53
14.1	4208.48
14.12	4334.92
14.14	3702.74
14.16	4515.54
14.18	4316.85
14.2	4334.92
14.22	4244.6
14.24	4497.47
14.26	4389.1
14.28	4425.23
14.3	3865.3
14.32	4190.42
14.34	4371.04
14.36	4479.41
14.38	3756.93
14.4	4172.36
14.42	3937.55
14.44	4244.6
14.46	4190.42
14.48	3955.61
14.5	3756.93
14.52	4443.29
14.54	3648.55
14.56	4027.86
14.58	4280.73
14.6	4479.41
14.62	4208.48
14.64	4515.54
14.66	4262.67
14.68	4262.67
14.7	4154.29
14.72	3973.67
14.74	3774.99
14.76	4533.6
14.78	4316.85
14.8	3702.74
14.82	4569.72
14.84	4045.92
14.86	4190.42
14.88	4479.41
14.9	4154.29
14.92	4063.98
14.94	4371.04
14.96	4172.36
14.98	4118.17
15	3955.61
15.02	3449.87
15.04	4136.23
15.06	4190.42
15.08	4371.04
15.1	3919.49
15.12	3937.55
15.14	4136.23
15.16	4208.48
15.18	4136.23
15.2	3829.18
15.22	3630.49
15.24	3811.11
15.26	4027.86
15.28	4027.86
15.3	3955.61
15.32	4045.92
15.34	4316.85
15.36	4226.54
15.38	3847.24
15.4	4280.73
15.42	3901.42
15.44	3793.05
15.46	3937.55
15.48	4316.85
15.5	4136.23
15.52	4298.79
15.54	3955.61
15.56	3829.18
15.58	4605.85
15.6	4298.79
15.62	4082.05
15.64	4407.16
15.66	4190.42
15.68	4009.8
15.7	3955.61
15.72	4371.04
15.74	4063.98
15.76	4190.42
15.78	4118.17
15.8	3594.37
15.82	3576.31
15.84	4009.8
15.86	3973.67
15.88	3793.05
15.9	3811.11
15.92	4569.72
15.94	4063.98
15.96	3847.24
15.98	4082.05
16	3720.8
16.02	3937.55
16.04	4082.05
16.06	4172.36
16.08	3793.05
16.1	4461.35
16.12	3576.31
16.14	3793.05
16.16	4280.73
16.18	4262.67
16.2	4100.11
16.22	3847.24
16.24	4190.42
16.26	3756.93
16.28	4100.11
16.3	3955.61
16.32	3811.11
16.34	3702.74
16.36	3558.24
16.38	3991.73
16.4	3937.55
16.42	3847.24
16.44	4190.42
16.46	3811.11
16.48	3594.37
16.5	4280.73
16.52	3883.36
16.54	3666.62
16.56	3793.05
16.58	3919.49
16.6	3648.55
16.62	4136.23
16.64	3865.3
16.66	3594.37
16.68	3937.55
16.7	4063.98
16.72	4262.67
16.74	3738.86
16.76	3793.05
16.78	4461.35
16.8	4497.47
16.82	3738.86
16.84	4136.23
16.86	3774.99
16.88	4027.86
16.9	3919.49
16.92	3919.49
16.94	4045.92
16.96	4208.48
16.98	4876.78
17	4045.92
17.02	4154.29
17.04	5201.9
17.06	4479.41
17.08	5093.53
17.1	5093.53
17.12	4515.54
17.14	5165.77
17.16	5418.64
17.18	5346.4
17.2	5779.89
17.22	5454.77
17.24	6105.01
17.26	5418.64
17.28	5436.71
17.3	5093.53
17.32	4858.72
17.34	4154.29
17.36	4497.47
17.38	4136.23
17.4	3973.67
17.42	4082.05
17.44	3973.67
17.46	3829.18
17.48	4045.92
17.5	3485.99
17.52	3811.11
17.54	3847.24
17.56	4045.92
17.58	3558.24
17.6	4118.17
17.62	3558.24
17.64	3793.05
17.66	3540.18
17.68	3666.62
17.7	3720.8
17.72	4082.05
17.74	3955.61
17.76	3558.24
17.78	3449.87
17.8	3522.12
17.82	3684.68
17.84	3612.43
17.86	3630.49
17.88	3648.55
17.9	4298.79
17.92	3413.75
17.94	4389.1
17.96	4533.6
17.98	4208.48
18	3973.67
18.02	3883.36
18.04	4334.92
18.06	4696.16
18.08	5039.34
18.1	4822.59
18.12	5165.77
18.14	6032.76
18.16	5906.32
18.18	6628.81
18.2	6646.87
18.22	6267.56
18.24	6249.5
18.26	5527.02
18.28	5779.89
18.3	5039.34
18.32	4985.15
18.34	5364.46
18.36	5021.28
18.38	4551.66
18.4	5888.26
18.42	5238.02
18.44	4822.59
18.46	4949.03
18.48	4605.85
18.5	4768.41
18.52	4623.91
18.54	4226.54
18.56	3847.24
18.58	3811.11
18.6	3504.06
18.62	3504.06
18.64	4226.54
18.66	3829.18
18.68	4045.92
18.7	4244.6
18.72	4316.85
18.74	4226.54
18.76	4190.42
18.78	4425.23
18.8	4461.35
18.82	4407.16
18.84	4912.9
18.86	5201.9
18.88	5129.65
18.9	5581.2
18.92	6177.25
18.94	6159.19
18.96	6177.25
18.98	5906.32
19	5942.45
19.02	5816.01
19.04	6068.88
19.06	5924.38
19.08	5960.51
19.1	5490.89
19.12	5527.02
19.14	5852.14
19.16	5743.76
19.18	6195.32
19.2	6466.25
19.22	6086.94
19.24	6105.01
19.26	5617.33
19.28	5454.77
19.3	4605.85
19.32	5436.71
19.34	5328.33
19.36	4894.84
19.38	4262.67
19.4	4894.84
19.42	4696.16
19.44	4497.47
19.46	5382.52
19.48	4768.41
19.5	4587.79
19.52	4569.72
19.54	4533.6
19.56	4371.04
19.58	4298.79
19.6	4949.03
19.62	4858.72
19.64	4244.6
19.66	4244.6
19.68	4136.23
19.7	4208.48
19.72	3919.49
19.74	3847.24
19.76	3937.55
19.78	3973.67
19.8	3467.93
19.82	4100.11
19.84	3865.3
19.86	3756.93
19.88	3720.8
19.9	3467.93
19.92	3811.11
19.94	3377.62
19.96	3485.99
19.98	3738.86
20	3901.42
20.02	3702.74
20.04	3467.93
20.06	3648.55
20.08	3467.93
20.1	3467.93
20.12	3413.75
20.14	3522.12
20.16	3594.37
20.18	3955.61
20.2	3323.44
20.22	3124.75
20.24	3305.37
20.26	3811.11
20.28	3413.75
20.3	3233.12
20.32	3720.8
20.34	4045.92
20.36	3756.93
20.38	3287.31
20.4	3847.24
20.42	3160.88
20.44	3937.55
20.46	3883.36
20.48	3630.49
20.5	3359.56
20.52	3431.81
20.54	3540.18
20.56	3793.05
20.58	3756.93
20.6	3883.36
20.62	3522.12
20.64	3793.05
20.66	3738.86
20.68	3937.55
20.7	3341.5
20.72	3576.31
20.74	3612.43
20.76	3738.86
20.78	4172.36
20.8	3865.3
20.82	4118.17
20.84	3630.49
20.86	3829.18
20.88	3648.55
20.9	3720.8
20.92	4082.05
20.94	3901.42
20.96	3323.44
20.98	3594.37
21	3359.56
21.02	3666.62
21.04	3467.93
21.06	4208.48
21.08	3558.24
21.1	3341.5
21.12	3666.62
21.14	3233.12
21.16	3630.49
21.18	3793.05
21.2	3485.99
21.22	3215.06
21.24	4009.8
21.26	3720.8
21.28	3449.87
21.3	4063.98
21.32	3684.68
21.34	4389.1
21.36	3666.62
21.38	4154.29
21.4	4100.11
21.42	3901.42
21.44	4172.36
21.46	4027.86
21.48	4027.86
21.5	3991.73
21.52	3251.19
21.54	3522.12
21.56	3612.43
21.58	3323.44
21.6	3738.86
21.62	3666.62
21.64	3648.55
21.66	3576.31
21.68	3558.24
21.7	3395.68
21.72	3865.3
21.74	3558.24
21.76	3594.37
21.78	3919.49
21.8	3666.62
21.82	3522.12
21.84	3305.37
21.86	3594.37
21.88	3540.18
21.9	3612.43
21.92	3937.55
21.94	4045.92
21.96	3847.24
21.98	3666.62
22	3666.62
22.02	3774.99
22.04	3449.87
22.06	3142.81
22.08	3522.12
22.1	3070.56
22.12	3251.19
22.14	2980.25
22.16	3287.31
22.18	3431.81
22.2	3666.62
22.22	3052.5
22.24	3485.99
22.26	3504.06
22.28	3088.63
22.3	3793.05
22.32	3449.87
22.34	3305.37
22.36	3287.31
22.38	3467.93
22.4	3648.55
22.42	3359.56
22.44	3142.81
22.46	3594.37
22.48	3323.44
22.5	3377.62
22.52	3160.88
22.54	3197
22.56	3269.25
22.58	3630.49
22.6	3124.75
22.62	3106.69
22.64	3287.31
22.66	2619.01
22.68	3034.44
22.7	3070.56
22.72	3178.94
22.74	3467.93
22.76	3359.56
22.78	3052.5
22.8	3106.69
22.82	2998.32
22.84	3359.56
22.86	2889.94
22.88	2853.82
22.9	3467.93
22.92	3395.68
22.94	3160.88
22.96	3504.06
22.98	3702.74
23	3251.19
23.02	3919.49
23.04	3178.94
23.06	3287.31
23.08	3233.12
23.1	3558.24
23.12	3070.56
23.14	3088.63
23.16	3124.75
23.18	3016.38
23.2	3467.93
23.22	3485.99
23.24	3395.68
23.26	3233.12
23.28	2980.25
23.3	3052.5
23.32	3359.56
23.34	3070.56
23.36	2926.07
23.38	2709.32
23.4	3251.19
23.42	2763.51
23.44	2763.51
23.46	3178.94
23.48	3395.68
23.5	3160.88
23.52	3341.5
23.54	3070.56
23.56	2853.82
23.58	3178.94
23.6	3955.61
23.62	2980.25
23.64	3197
23.66	3106.69
23.68	3197
23.7	3070.56
23.72	3359.56
23.74	3702.74
23.76	3702.74
23.78	3829.18
23.8	3937.55
23.82	3160.88
23.84	3847.24
23.86	3738.86
23.88	3847.24
23.9	3811.11
23.92	3576.31
23.94	3973.67
23.96	4082.05
23.98	3829.18
24	4063.98
24.02	3612.43
24.04	3359.56
24.06	4172.36
24.08	3684.68
24.1	3720.8
24.12	3215.06
24.14	3829.18
24.16	3160.88
24.18	3558.24
24.2	3558.24
24.22	3431.81
24.24	3323.44
24.26	2962.19
24.28	3016.38
24.3	2998.32
24.32	2817.69
24.34	3160.88
24.36	3088.63
24.38	3142.81
24.4	3178.94
24.42	3106.69
24.44	3269.25
24.46	2727.38
24.48	3323.44
24.5	3395.68
24.52	2980.25
24.54	3160.88
24.56	3269.25
24.58	2853.82
24.6	2998.32
24.62	2980.25
24.64	3233.12
24.66	2799.63
24.68	2637.07
24.7	2655.14
24.72	3215.06
24.74	2763.51
24.76	2817.69
24.78	2691.26
24.8	2835.76
24.82	2998.32
24.84	2546.76
24.86	2853.82
24.88	2709.32
24.9	3088.63
24.92	2889.94
24.94	2600.95
24.96	2655.14
24.98	2528.7
25	2799.63
25.02	2673.2
25.04	2962.19
25.06	2564.82
25.08	2582.89
25.1	2727.38
25.12	2817.69
25.14	2564.82
25.16	2637.07
25.18	2799.63
25.2	2781.57
25.22	2492.58
25.24	2637.07
25.26	2817.69
25.28	2962.19
25.3	2781.57
25.32	2799.63
25.34	2781.57
25.36	2962.19
25.38	2474.51
25.4	3034.44
25.42	2781.57
25.44	2564.82
25.46	2095.21
25.48	2980.25
25.5	2655.14
25.52	2853.82
25.54	2402.27
25.56	2727.38
25.58	2835.76
25.6	2528.7
25.62	3287.31
25.64	2817.69
25.66	3504.06
25.68	3052.5
25.7	3341.5
25.72	2926.07
25.74	2853.82
25.76	3269.25
25.78	3467.93
25.8	3522.12
25.82	3449.87
25.84	3197
25.86	3124.75
25.88	3811.11
25.9	4118.17
25.92	4443.29
25.94	3901.42
25.96	4208.48
25.98	4605.85
26	4623.91
26.02	4244.6
26.04	4949.03
26.06	4678.1
26.08	4425.23
26.1	4822.59
26.12	4461.35
26.14	4389.1
26.16	4298.79
26.18	4082.05
26.2	3413.75
26.22	3413.75
26.24	2889.94
26.26	3106.69
26.28	3052.5
26.3	2944.13
26.32	2889.94
26.34	2600.95
26.36	2871.88
26.38	2817.69
26.4	2474.51
26.42	2420.33
26.44	2420.33
26.46	2510.64
26.48	2420.33
26.5	2510.64
26.52	2275.83
26.54	2095.21
26.56	2835.76
26.58	2655.14
26.6	1986.84
26.62	2059.08
26.64	2384.2
26.66	2330.02
26.68	2239.71
26.7	2492.58
26.72	2167.46
26.74	2474.51
26.76	2275.83
26.78	2438.39
26.8	2402.27
26.82	2600.95
26.84	2059.08
26.86	1715.9
26.88	2546.76
26.9	2239.71
26.92	2492.58
26.94	2059.08
26.96	1878.46
26.98	2293.89
27	2167.46
27.02	2420.33
27.04	1986.84
27.06	2257.77
27.08	2456.45
27.1	2348.08
27.12	2239.71
27.14	2330.02
27.16	2438.39
27.18	2402.27
27.2	2257.77
27.22	2709.32
27.24	2600.95
27.26	2257.77
27.28	2149.4
27.3	1986.84
27.32	2167.46
27.34	2077.15
27.36	2149.4
27.38	2384.2
27.4	2257.77
27.42	2041.02
27.44	2203.58
27.46	2203.58
27.48	2239.71
27.5	2384.2
27.52	2293.89
27.54	2077.15
27.56	2185.52
27.58	2293.89
27.6	2004.9
27.62	2167.46
27.64	2131.33
27.66	2095.21
27.68	2239.71
27.7	2113.27
27.72	1770.09
27.74	1968.77
27.76	1625.59
27.78	1806.21
27.8	2022.96
27.82	2257.77
27.84	2059.08
27.86	2095.21
27.88	2095.21
27.9	1914.59
27.92	2221.64
27.94	2059.08
27.96	2077.15
27.98	2492.58
28	2456.45
28.02	2275.83
28.04	2366.14
28.06	2221.64
28.08	2492.58
28.1	1968.77
28.12	2221.64
28.14	1860.4
28.16	2077.15
28.18	2203.58
28.2	2239.71
28.22	2004.9
28.24	2095.21
28.26	2113.27
28.28	1770.09
28.3	2257.77
28.32	2059.08
28.34	2004.9
28.36	1842.34
28.38	1697.84
28.4	2221.64
28.42	1878.46
28.44	1968.77
28.46	1896.53
28.48	2059.08
28.5	1752.03
28.52	2004.9
28.54	2275.83
28.56	2077.15
28.58	1824.28
28.6	1752.03
28.62	1806.21
28.64	2113.27
28.66	2149.4
28.68	2600.95
28.7	2095.21
28.72	2149.4
28.74	2022.96
28.76	1896.53
28.78	2131.33
28.8	2131.33
28.82	1986.84
28.84	2113.27
28.86	2185.52
28.88	2059.08
28.9	2167.46
28.92	2311.95
28.94	2456.45
28.96	2131.33
28.98	2257.77
29	1788.15
29.02	1733.97
29.04	2131.33
29.06	2095.21
29.08	1715.9
29.1	2293.89
29.12	1878.46
29.14	1878.46
29.16	1661.72
29.18	2167.46
29.2	1679.78
29.22	2221.64
29.24	2167.46
29.26	2203.58
29.28	2564.82
29.3	2348.08
29.32	2366.14
29.34	2113.27
29.36	2763.51
29.38	2293.89
29.4	2149.4
29.42	2366.14
29.44	2221.64
29.46	2167.46
29.48	1589.47
29.5	1806.21
29.52	1986.84
29.54	1697.84
29.56	1986.84
29.58	1860.4
29.6	1914.59
29.62	1950.71
29.64	1878.46
29.66	1733.97
29.68	1715.9
29.7	1842.34
29.72	1806.21
29.74	1733.97
29.76	1842.34
29.78	1661.72
29.8	2022.96
29.82	1896.53
29.84	1752.03
29.86	1643.66
29.88	1770.09
29.9	1444.97
29.92	1661.72
29.94	1860.4
29.96	1806.21
29.98	1625.59
30	1571.41
30.02	1697.84
30.04	1463.03
30.06	1860.4
30.08	1788.15
30.1	1806.21
30.12	1625.59
30.14	1571.41
30.16	1806.21
30.18	1697.84
30.2	1481.1
30.22	1679.78
30.24	1517.22
30.26	1824.28
30.28	1679.78
30.3	1860.4
30.32	1752.03
30.34	1842.34
30.36	2095.21
30.38	2095.21
30.4	1535.28
30.42	1842.34
30.44	1950.71
30.46	1752.03
30.48	1986.84
30.5	2004.9
30.52	1968.77
30.54	2004.9
30.56	1553.34
30.58	1625.59
30.6	1553.34
30.62	2095.21
30.64	1661.72
30.66	1932.65
30.68	1968.77
30.7	1679.78
30.72	1643.66
30.74	1733.97
30.76	1824.28
30.78	1968.77
30.8	2167.46
30.82	1770.09
30.84	2022.96
30.86	1607.53
30.88	1679.78
30.9	1896.53
30.92	1860.4
30.94	2077.15
30.96	1733.97
30.98	1625.59
31	1950.71
31.02	1842.34
31.04	1968.77
31.06	1788.15
31.08	1733.97
31.1	1715.9
31.12	1860.4
31.14	2004.9
31.16	2095.21
31.18	1860.4
31.2	1625.59
31.22	1788.15
31.24	1842.34
31.26	1860.4
31.28	1661.72
31.3	1336.6
31.32	1679.78
31.34	1643.66
31.36	1788.15
31.38	1752.03
31.4	1390.79
31.42	1517.22
31.44	1697.84
31.46	1553.34
31.48	1589.47
31.5	1770.09
31.52	1679.78
31.54	1733.97
31.56	1607.53
31.58	1770.09
31.6	1643.66
31.62	1553.34
31.64	1535.28
31.66	1643.66
31.68	1607.53
31.7	1733.97
31.72	1986.84
31.74	1481.1
31.76	1571.41
31.78	1733.97
31.8	1535.28
31.82	1589.47
31.84	1625.59
31.86	1679.78
31.88	1643.66
31.9	1679.78
31.92	1697.84
31.94	1824.28
31.96	1535.28
31.98	1715.9
32	1535.28
32.02	1643.66
32.04	1463.03
32.06	1553.34
32.08	1517.22
32.1	1553.34
32.12	1715.9
32.14	1354.66
32.16	1535.28
32.18	1679.78
32.2	1679.78
32.22	1553.34
32.24	1390.79
32.26	1192.1
32.28	1571.41
32.3	1481.1
32.32	1426.91
32.34	1463.03
32.36	1517.22
32.38	1517.22
32.4	1481.1
32.42	1481.1
32.44	1788.15
32.46	1426.91
32.48	1318.54
32.5	1192.1
32.52	1589.47
32.54	1535.28
32.56	1499.16
32.58	1318.54
32.6	1535.28
32.62	1336.6
32.64	1679.78
32.66	1643.66
32.68	1336.6
32.7	1463.03
32.72	1571.41
32.74	1661.72
32.76	1408.85
32.78	1517.22
32.8	1589.47
32.82	1354.66
32.84	1625.59
32.86	1372.72
32.88	1589.47
32.9	1390.79
32.92	1282.41
32.94	1300.47
32.96	1589.47
32.98	1589.47
33	1517.22
33.02	1444.97
33.04	1517.22
33.06	1192.1
33.08	1318.54
33.1	1607.53
33.12	1354.66
33.14	1607.53
33.16	1553.34
33.18	1336.6
33.2	1246.29
33.22	1408.85
33.24	1372.72
33.26	1444.97
33.28	1481.1
33.3	1444.97
33.32	1481.1
33.34	1426.91
33.36	1643.66
33.38	1625.59
33.4	1390.79
33.42	1589.47
33.44	1463.03
33.46	1535.28
33.48	1463.03
33.5	1499.16
33.52	1517.22
33.54	1625.59
33.56	1499.16
33.58	1463.03
33.6	1372.72
33.62	1029.54
33.64	1499.16
33.66	1517.22
33.68	1354.66
33.7	1372.72
33.72	1444.97
33.74	1481.1
33.76	1246.29
33.78	1336.6
33.8	1571.41
33.82	1137.92
33.84	1300.47
33.86	957.294
33.88	1426.91
33.9	1047.6
33.92	1372.72
33.94	1119.85
33.96	1426.91
33.98	1535.28
34	1499.16
34.02	1426.91
34.04	1372.72
34.06	1246.29
34.08	1336.6
34.1	1444.97
34.12	1463.03
34.14	1535.28
34.16	1390.79
34.18	1950.71
34.2	1444.97
34.22	1390.79
34.24	1625.59
34.26	1679.78
34.28	1444.97
34.3	1463.03
34.32	1607.53
34.34	1390.79
34.36	1354.66
34.38	1210.16
34.4	1354.66
34.42	1444.97
34.44	1426.91
34.46	1336.6
34.48	1047.6
34.5	1174.04
34.52	1354.66
34.54	1571.41
34.56	1517.22
34.58	1282.41
34.6	1282.41
34.62	1444.97
34.64	1499.16
34.66	1318.54
34.68	1408.85
34.7	1372.72
34.72	1137.92
34.74	1228.23
34.76	1390.79
34.78	1571.41
34.8	1228.23
34.82	1390.79
34.84	1553.34
34.86	1390.79
34.88	1246.29
34.9	1228.23
34.92	1444.97
34.94	1607.53
34.96	1372.72
34.98	1282.41
35	1553.34
35.02	1210.16
35.04	1336.6
35.06	1372.72
35.08	1264.35
35.1	1155.98
35.12	1318.54
35.14	1119.85
35.16	1065.67
35.18	1390.79
35.2	1444.97
35.22	1174.04
35.24	993.418
35.26	1390.79
35.28	1192.1
35.3	1101.79
35.32	1499.16
35.34	1408.85
35.36	1155.98
35.38	1282.41
35.4	1101.79
35.42	1047.6
35.44	1137.92
35.46	1101.79
35.48	1101.79
35.5	1228.23
35.52	1192.1
35.54	1137.92
35.56	1372.72
35.58	1228.23
35.6	1174.04
35.62	1354.66
35.64	1390.79
35.66	1264.35
35.68	1137.92
35.7	1481.1
35.72	1517.22
35.74	1426.91
35.76	1336.6
35.78	1155.98
35.8	1426.91
35.82	1155.98
35.84	1029.54
35.86	1408.85
35.88	1065.67
35.9	1011.48
35.92	1282.41
35.94	1300.47
35.96	1408.85
35.98	1137.92
36	1354.66
36.02	1210.16
36.04	1444.97
36.06	1011.48
36.08	1119.85
36.1	1210.16
36.12	1083.73
36.14	1408.85
36.16	1372.72
36.18	1318.54
36.2	1354.66
36.22	1174.04
36.24	1246.29
36.26	1101.79
36.28	1300.47
36.3	1047.6
36.32	1246.29
36.34	1192.1
36.36	1426.91
36.38	1192.1
36.4	1192.1
36.42	1083.73
36.44	1228.23
36.46	1210.16
36.48	1174.04
36.5	1119.85
36.52	957.294
36.54	1174.04
36.56	1065.67
36.58	921.169
36.6	1137.92
36.62	1390.79
36.64	1192.1
36.66	1192.1
36.68	1174.04
36.7	1210.16
36.72	1354.66
36.74	1354.66
36.76	1372.72
36.78	1264.35
36.8	1264.35
36.82	1192.1
36.84	1336.6
36.86	1246.29
36.88	1210.16
36.9	1029.54
36.92	1282.41
36.94	1155.98
36.96	1228.23
36.98	1354.66
37	1083.73
37.02	1029.54
37.04	1282.41
37.06	1282.41
37.08	1065.67
37.1	1155.98
37.12	1372.72
37.14	1228.23
37.16	1336.6
37.18	1426.91
37.2	1300.47
37.22	1354.66
37.24	1192.1
37.26	1155.98
37.28	1264.35
37.3	1246.29
37.32	1155.98
37.34	1119.85
37.36	1282.41
37.38	1119.85
37.4	1264.35
37.42	1210.16
37.44	1101.79
37.46	1246.29
37.48	1083.73
37.5	1083.73
37.52	1246.29
37.54	1101.79
37.56	1101.79
37.58	1192.1
37.6	1264.35
37.62	975.356
37.64	975.356
37.66	1318.54
37.68	1101.79
37.7	1318.54
37.72	1426.91
37.74	1246.29
37.76	1318.54
37.78	1065.67
37.8	1246.29
37.82	1083.73
37.84	1318.54
37.86	1029.54
37.88	1155.98
37.9	1137.92
37.92	1264.35
37.94	1246.29
37.96	1336.6
37.98	1318.54
38	1065.67
38.02	1137.92
38.04	1101.79
38.06	1426.91
38.08	1336.6
38.1	1318.54
38.12	1246.29
38.14	1083.73
38.16	1246.29
38.18	1155.98
38.2	1065.67
38.22	1354.66
38.24	1192.1
38.26	1011.48
38.28	1463.03
38.3	1354.66
38.32	1282.41
38.34	1282.41
38.36	1137.92
38.38	1282.41
38.4	1192.1
38.42	1408.85
38.44	1463.03
38.46	1119.85
38.48	1047.6
38.5	1119.85
38.52	1155.98
38.54	1318.54
38.56	1354.66
38.58	1282.41
38.6	1390.79
38.62	1354.66
38.64	1426.91
38.66	1246.29
38.68	1137.92
38.7	1119.85
38.72	1390.79
38.74	1390.79
38.76	1137.92
38.78	1011.48
38.8	993.418
38.82	1137.92
38.84	1047.6
38.86	1300.47
38.88	1192.1
38.9	1246.29
38.92	1246.29
38.94	957.294
38.96	1155.98
38.98	1210.16
39	975.356
39.02	1155.98
39.04	1065.67
39.06	1011.48
39.08	975.356
39.1	1174.04
39.12	1137.92
39.14	1264.35
39.16	1192.1
39.18	1137.92
39.2	1174.04
39.22	1011.48
39.24	1011.48
39.26	848.921
39.28	1083.73
39.3	1083.73
39.32	1264.35
39.34	993.418
39.36	1065.67
39.38	1065.67
39.4	957.294
39.42	1119.85
39.44	1318.54
39.46	1210.16
39.48	1192.1
39.5	1155.98
39.52	1047.6
39.54	1029.54
39.56	975.356
39.58	1101.79
39.6	1192.1
39.62	1119.85
39.64	921.169
39.66	1210.16
39.68	1174.04
39.7	1246.29
39.72	1083.73
39.74	1463.03
39.76	1083.73
39.78	975.356
39.8	1047.6
39.82	1029.54
39.84	1065.67
39.86	1174.04
39.88	1047.6
39.9	1426.91
39.92	1192.1
39.94	1336.6
39.96	1137.92
39.98	1101.79
40	1246.29
40.02	1101.79
40.04	975.356
40.06	1065.67
40.08	1192.1
40.1	1065.67
40.12	1228.23
40.14	1210.16
40.16	1101.79
40.18	1137.92
40.2	1228.23
40.22	1192.1
40.24	885.045
40.26	1029.54
40.28	1083.73
40.3	866.983
40.32	1011.48
40.34	1155.98
40.36	1065.67
40.38	1101.79
40.4	1246.29
40.42	1246.29
40.44	1228.23
40.46	1155.98
40.48	957.294
40.5	1137.92
40.52	1155.98
40.54	1264.35
40.56	1155.98
40.58	1155.98
40.6	903.107
40.62	794.734
40.64	1174.04
40.66	1029.54
40.68	1101.79
40.7	1083.73
40.72	1029.54
40.74	1029.54
40.76	1083.73
40.78	1065.67
40.8	1119.85
40.82	1228.23
40.84	1137.92
40.86	1264.35
40.88	1119.85
40.9	1264.35
40.92	1155.98
40.94	1192.1
40.96	1282.41
40.98	1426.91
41	1065.67
41.02	1354.66
41.04	1372.72
41.06	1192.1
41.08	1390.79
41.1	1065.67
41.12	1137.92
41.14	1047.6
41.16	1155.98
41.18	1083.73
41.2	1264.35
41.22	1246.29
41.24	1372.72
41.26	1155.98
41.28	1264.35
41.3	1065.67
41.32	1155.98
41.34	993.418
41.36	975.356
41.38	1011.48
41.4	1192.1
41.42	1047.6
41.44	975.356
41.46	1065.67
41.48	1029.54
41.5	921.169
41.52	939.232
41.54	1174.04
41.56	1065.67
41.58	1174.04
41.6	1119.85
41.62	939.232
41.64	1155.98
41.66	1047.6
41.68	1011.48
41.7	1029.54
41.72	1246.29
41.74	1228.23
41.76	1192.1
41.78	975.356
41.8	1119.85
41.82	939.232
41.84	1047.6
41.86	1210.16
41.88	957.294
41.9	1264.35
41.92	1210.16
41.94	866.983
41.96	1192.1
41.98	1011.48
42	848.921
42.02	993.418
42.04	1065.67
42.06	1011.48
42.08	885.045
42.1	776.672
42.12	1083.73
42.14	957.294
42.16	1047.6
42.18	1065.67
42.2	1192.1
42.22	975.356
42.24	939.232
42.26	975.356
42.28	1137.92
42.3	848.921
42.32	812.797
42.34	993.418
42.36	1083.73
42.38	776.672
42.4	939.232
42.42	1119.85
42.44	830.859
42.46	939.232
42.48	993.418
42.5	939.232
42.52	1047.6
42.54	957.294
42.56	975.356
42.58	1101.79
42.6	1047.6
42.62	1137.92
42.64	1047.6
42.66	1119.85
42.68	939.232
42.7	866.983
42.72	957.294
42.74	1047.6
42.76	903.107
42.78	1137.92
42.8	1228.23
42.82	1065.67
42.84	1065.67
42.86	975.356
42.88	848.921
42.9	1192.1
42.92	1318.54
42.94	1047.6
42.96	1065.67
42.98	1408.85
43	957.294
43.02	1119.85
43.04	848.921
43.06	1029.54
43.08	1210.16
43.1	1101.79
43.12	1137.92
43.14	1282.41
43.16	1011.48
43.18	1011.48
43.2	1029.54
43.22	1318.54
43.24	1246.29
43.26	1065.67
43.28	1155.98
43.3	1047.6
43.32	1011.48
43.34	1137.92
43.36	848.921
43.38	1354.66
43.4	830.859
43.42	993.418
43.44	848.921
43.46	812.797
43.48	1264.35
43.5	1101.79
43.52	1119.85
43.54	993.418
43.56	1264.35
43.58	848.921
43.6	957.294
43.62	885.045
43.64	975.356
43.66	975.356
43.68	1228.23
43.7	993.418
43.72	1192.1
43.74	776.672
43.76	1029.54
43.78	812.797
43.8	812.797
43.82	1155.98
43.84	903.107
43.86	1011.48
43.88	939.232
43.9	903.107
43.92	885.045
43.94	975.356
43.96	1174.04
43.98	939.232
44	1174.04
44.02	1083.73
44.04	975.356
44.06	830.859
44.08	1047.6
44.1	1155.98
44.12	1426.91
44.14	830.859
44.16	921.169
44.18	921.169
44.2	848.921
44.22	993.418
44.24	1210.16
44.26	1137.92
44.28	1174.04
44.3	1119.85
44.32	1029.54
44.34	957.294
44.36	1029.54
44.38	1228.23
44.4	993.418
44.42	1192.1
44.44	1192.1
44.46	1047.6
44.48	921.169
44.5	1155.98
44.52	885.045
44.54	1029.54
44.56	993.418
44.58	975.356
44.6	812.797
44.62	1336.6
44.64	939.232
44.66	975.356
44.68	903.107
44.7	921.169
44.72	1083.73
44.74	758.61
44.76	921.169
44.78	993.418
44.8	903.107
44.82	921.169
44.84	1029.54
44.86	1155.98
44.88	939.232
44.9	903.107
44.92	885.045
44.94	722.486
44.96	650.237
44.98	921.169
45	885.045
45.02	903.107
45.04	993.418
45.06	848.921
45.08	975.356
45.1	1065.67
45.12	957.294
45.14	1083.73
45.16	885.045
45.18	1083.73
45.2	993.418
45.22	866.983
45.24	1011.48
45.26	885.045
45.28	1047.6
45.3	1192.1
45.32	1155.98
45.34	993.418
45.36	794.734
45.38	848.921
45.4	975.356
45.42	848.921
45.44	866.983
45.46	975.356
45.48	848.921
45.5	921.169
45.52	885.045
45.54	903.107
45.56	866.983
45.58	921.169
45.6	1029.54
45.62	921.169
45.64	794.734
45.66	885.045
45.68	921.169
45.7	776.672
45.72	469.616
45.74	1065.67
45.76	1228.23
45.78	740.548
45.8	939.232
45.82	1047.6
45.84	1011.48
45.86	903.107
45.88	1137.92
45.9	921.169
45.92	939.232
45.94	830.859
45.96	957.294
45.98	1210.16
46	776.672
46.02	939.232
46.04	1155.98
46.06	758.61
46.08	1083.73
46.1	848.921
46.12	758.61
46.14	776.672
46.16	830.859
46.18	1029.54
46.2	939.232
46.22	993.418
46.24	1083.73
46.26	939.232
46.28	1065.67
46.3	921.169
46.32	848.921
46.34	921.169
46.36	740.548
46.38	885.045
46.4	957.294
46.42	993.418
46.44	866.983
46.46	740.548
46.48	939.232
46.5	812.797
46.52	903.107
46.54	794.734
46.56	866.983
46.58	812.797
46.6	885.045
46.62	830.859
46.64	939.232
46.66	903.107
46.68	776.672
46.7	957.294
46.72	722.486
46.74	812.797
46.76	812.797
46.78	776.672
46.8	957.294
46.82	885.045
46.84	957.294
46.86	794.734
46.88	523.802
46.9	975.356
46.92	848.921
46.94	1101.79
46.96	830.859
46.98	1228.23
47	812.797
47.02	1065.67
47.04	975.356
47.06	1065.67
47.08	921.169
47.1	921.169
47.12	794.734
47.14	650.237
47.16	885.045
47.18	885.045
47.2	885.045
47.22	957.294
47.24	740.548
47.26	1065.67
47.28	1065.67
47.3	921.169
47.32	903.107
47.34	866.983
47.36	903.107
47.38	957.294
47.4	939.232
47.42	596.051
47.44	993.418
47.46	939.232
47.48	921.169
47.5	1065.67
47.52	794.734
47.54	722.486
47.56	866.983
47.58	1029.54
47.6	993.418
47.62	650.237
47.64	776.672
47.66	830.859
47.68	939.232
47.7	740.548
47.72	794.734
47.74	758.61
47.76	614.113
47.78	1065.67
47.8	704.424
47.82	848.921
47.84	939.232
47.86	758.61
47.88	740.548
47.9	740.548
47.92	668.299
47.94	722.486
47.96	668.299
47.98	812.797
48	812.797
48.02	541.864
48.04	740.548
48.06	1119.85
48.08	830.859
48.1	722.486
48.12	668.299
48.14	776.672
48.16	632.175
48.18	722.486
48.2	577.989
48.22	993.418
48.24	523.802
48.26	812.797
48.28	1137.92
48.3	722.486
48.32	614.113
48.34	650.237
48.36	596.051
48.38	758.61
48.4	830.859
48.42	704.424
48.44	848.921
48.46	722.486
48.48	866.983
48.5	939.232
48.52	668.299
48.54	577.989
48.56	740.548
48.58	921.169
48.6	939.232
48.62	993.418
48.64	722.486
48.66	848.921
48.68	885.045
48.7	794.734
48.72	903.107
48.74	632.175
48.76	758.61
48.78	776.672
48.8	993.418
48.82	686.362
48.84	758.61
48.86	487.678
48.88	614.113
48.9	704.424
48.92	939.232
48.94	523.802
48.96	686.362
48.98	830.859
49	668.299
49.02	650.237
49.04	758.61
49.06	740.548
49.08	812.797
49.1	650.237
49.12	866.983
49.14	776.672
49.16	830.859
49.18	758.61
49.2	614.113
49.22	686.362
49.24	885.045
49.26	632.175
49.28	668.299
49.3	1083.73
49.32	632.175
49.34	722.486
49.36	722.486
49.38	722.486
49.4	668.299
49.42	704.424
49.44	830.859
49.46	758.61
49.48	704.424
49.5	632.175
49.52	776.672
49.54	668.299
49.56	686.362
49.58	740.548
49.6	686.362
49.62	794.734
49.64	903.107
49.66	577.989
49.68	848.921
49.7	596.051
49.72	776.672
49.74	541.864
49.76	885.045
49.78	722.486
49.8	704.424
49.82	541.864
49.84	614.113
49.86	740.548
49.88	740.548
49.9	740.548
49.92	686.362
49.94	704.424
49.96	632.175
49.98	650.237
50	614.113
50.02	848.921
50.04	903.107
50.06	722.486
50.08	686.362
50.1	812.797
50.12	740.548
50.14	794.734
50.16	614.113
50.18	848.921
50.2	830.859
50.22	722.486
50.24	559.927
50.26	650.237
50.28	614.113
50.3	596.051
50.32	704.424
50.34	740.548
50.36	451.554
50.38	704.424
50.4	686.362
50.42	668.299
50.44	614.113
50.46	686.362
50.48	740.548
50.5	722.486
50.52	668.299
50.54	975.356
50.56	776.672
50.58	650.237
50.6	812.797
50.62	704.424
50.64	704.424
50.66	541.864
50.68	596.051
50.7	794.734
50.72	614.113
50.74	686.362
50.76	487.678
50.78	668.299
50.8	632.175
50.82	596.051
50.84	776.672
50.86	686.362
50.88	722.486
50.9	704.424
50.92	577.989
50.94	614.113
50.96	632.175
50.98	812.797
51	668.299
51.02	668.299
51.04	668.299
51.06	704.424
51.08	505.74
51.1	758.61
51.12	668.299
51.14	614.113
51.16	740.548
51.18	794.734
51.2	740.548
51.22	632.175
51.24	559.927
51.26	559.927
51.28	632.175
51.3	614.113
51.32	541.864
51.34	577.989
51.36	596.051
51.38	632.175
51.4	632.175
51.42	686.362
51.44	866.983
51.46	812.797
51.48	686.362
51.5	632.175
51.52	614.113
51.54	632.175
51.56	668.299
51.58	776.672
51.6	614.113
51.62	632.175
51.64	650.237
51.66	632.175
51.68	614.113
51.7	668.299
51.72	632.175
51.74	614.113
51.76	650.237
51.78	740.548
51.8	794.734
51.82	668.299
51.84	632.175
51.86	668.299
51.88	686.362
51.9	686.362
51.92	632.175
51.94	686.362
51.96	523.802
51.98	686.362
52	632.175
52.02	722.486
52.04	614.113
52.06	596.051
52.08	451.554
52.1	704.424
52.12	433.492
52.14	596.051
52.16	686.362
52.18	668.299
52.2	776.672
52.22	577.989
52.24	632.175
52.26	614.113
52.28	523.802
52.3	541.864
52.32	668.299
52.34	903.107
52.36	722.486
52.38	541.864
52.4	740.548
52.42	596.051
52.44	505.74
52.46	704.424
52.48	704.424
52.5	541.864
52.52	541.864
52.54	758.61
52.56	505.74
52.58	740.548
52.6	596.051
52.62	451.554
52.64	866.983
52.66	921.169
52.68	632.175
52.7	559.927
52.72	577.989
52.74	632.175
52.76	650.237
52.78	686.362
52.8	776.672
52.82	541.864
52.84	704.424
52.86	469.616
52.88	577.989
52.9	740.548
52.92	830.859
52.94	776.672
52.96	650.237
52.98	686.362
53	758.61
53.02	722.486
53.04	523.802
53.06	577.989
53.08	668.299
53.1	577.989
53.12	758.61
53.14	596.051
53.16	668.299
53.18	668.299
53.2	650.237
53.22	740.548
53.24	704.424
53.26	650.237
53.28	758.61
53.3	541.864
53.32	650.237
53.34	541.864
53.36	704.424
53.38	577.989
53.4	686.362
53.42	830.859
53.44	577.989
53.46	559.927
53.48	559.927
53.5	632.175
53.52	577.989
53.54	523.802
53.56	668.299
53.58	523.802
53.6	505.74
53.62	614.113
53.64	596.051
53.66	596.051
53.68	505.74
53.7	469.616
53.72	776.672
53.74	686.362
53.76	668.299
53.78	469.616
53.8	469.616
53.82	469.616
53.84	577.989
53.86	596.051
53.88	577.989
53.9	523.802
53.92	632.175
53.94	541.864
53.96	686.362
53.98	812.797
54	704.424
54.02	758.61
54.04	668.299
54.06	686.362
54.08	668.299
54.1	848.921
54.12	451.554
54.14	415.429
54.16	686.362
54.18	523.802
54.2	614.113
54.22	614.113
54.24	469.616
54.26	559.927
54.28	704.424
54.3	596.051
54.32	596.051
54.34	596.051
54.36	632.175
54.38	505.74
54.4	650.237
54.42	559.927
54.44	614.113
54.46	686.362
54.48	541.864
54.5	541.864
54.52	487.678
54.54	794.734
54.56	469.616
54.58	614.113
54.6	505.74
54.62	505.74
54.64	632.175
54.66	523.802
54.68	523.802
54.7	505.74
54.72	559.927
54.74	487.678
54.76	632.175
54.78	397.367
54.8	451.554
54.82	559.927
54.84	668.299
54.86	541.864
54.88	650.237
54.9	397.367
54.92	632.175
54.94	596.051
54.96	487.678
54.98	505.74
55	704.424
55.02	848.921
55.04	686.362
55.06	523.802
55.08	596.051
55.1	523.802
55.12	397.367
55.14	559.927
55.16	632.175
55.18	487.678
55.2	451.554
55.22	523.802
55.24	632.175
55.26	559.927
55.28	451.554
55.3	686.362
55.32	559.927
55.34	686.362
55.36	415.429
55.38	541.864
55.4	469.616
55.42	614.113
55.44	650.237
55.46	505.74
55.48	577.989
55.5	650.237
55.52	668.299
55.54	541.864
55.56	559.927
55.58	632.175
55.6	577.989
55.62	469.616
55.64	866.983
55.66	487.678
55.68	523.802
55.7	614.113
55.72	505.74
55.74	469.616
55.76	632.175
55.78	704.424
55.8	559.927
55.82	668.299
55.84	577.989
55.86	596.051
55.88	740.548
55.9	650.237
55.92	686.362
55.94	740.548
55.96	487.678
55.98	758.61
56	614.113
56.02	668.299
56.04	614.113
56.06	577.989
56.08	632.175
56.1	505.74
56.12	451.554
56.14	596.051
56.16	614.113
56.18	632.175
56.2	812.797
56.22	559.927
56.24	794.734
56.26	559.927
56.28	451.554
56.3	361.243
56.32	577.989
56.34	433.492
56.36	668.299
56.38	650.237
56.4	577.989
56.42	650.237
56.44	469.616
56.46	577.989
56.48	794.734
56.5	541.864
56.52	451.554
56.54	650.237
56.56	704.424
56.58	487.678
56.6	559.927
56.62	505.74
56.64	614.113
56.66	469.616
56.68	650.237
56.7	614.113
56.72	650.237
56.74	668.299
56.76	650.237
56.78	577.989
56.8	596.051
56.82	704.424
56.84	577.989
56.86	577.989
56.88	415.429
56.9	307.056
56.92	559.927
56.94	704.424
56.96	596.051
56.98	505.74
57	523.802
57.02	704.424
57.04	559.927
57.06	415.429
57.08	650.237
57.1	505.74
57.12	397.367
57.14	523.802
57.16	379.305
57.18	632.175
57.2	668.299
57.22	668.299
57.24	469.616
57.26	722.486
57.28	487.678
57.3	307.056
57.32	740.548
57.34	577.989
57.36	668.299
57.38	487.678
57.4	686.362
57.42	433.492
57.44	541.864
57.46	505.74
57.48	577.989
57.5	559.927
57.52	397.367
57.54	505.74
57.56	487.678
57.58	541.864
57.6	451.554
57.62	469.616
57.64	361.243
57.66	577.989
57.68	343.181
57.7	487.678
57.72	559.927
57.74	469.616
57.76	596.051
57.78	361.243
57.8	577.989
57.82	505.74
57.84	650.237
57.86	596.051
57.88	523.802
57.9	361.243
57.92	541.864
57.94	559.927
57.96	451.554
57.98	361.243
58	921.169
58.02	541.864
58.04	632.175
58.06	577.989
58.08	704.424
58.1	704.424
58.12	632.175
58.14	596.051
58.16	523.802
58.18	379.305
58.2	614.113
58.22	523.802
58.24	596.051
58.26	451.554
58.28	577.989
58.3	541.864
58.32	650.237
58.34	469.616
58.36	523.802
58.38	541.864
58.4	559.927
58.42	541.864
58.44	559.927
58.46	487.678
58.48	469.616
58.5	686.362
58.52	668.299
58.54	577.989
58.56	487.678
58.58	577.989
58.6	505.74
58.62	505.74
58.64	577.989
58.66	451.554
58.68	541.864
58.7	523.802
58.72	505.74
58.74	433.492
58.76	596.051
58.78	577.989
58.8	487.678
58.82	397.367
58.84	614.113
58.86	397.367
58.88	632.175
58.9	614.113
58.92	487.678
58.94	650.237
58.96	559.927
58.98	523.802
59	487.678
59.02	325.119
59.04	704.424
59.06	541.864
59.08	415.429
59.1	577.989
59.12	541.864
59.14	596.051
59.16	505.74
59.18	487.678
59.2	577.989
59.22	487.678
59.24	505.74
59.26	487.678
59.28	668.299
59.3	523.802
59.32	740.548
59.34	523.802
59.36	505.74
59.38	469.616
59.4	343.181
59.42	505.74
59.44	830.859
59.46	632.175
59.48	469.616
59.5	487.678
59.52	487.678
59.54	505.74
59.56	577.989
59.58	632.175
59.6	614.113
59.62	650.237
59.64	397.367
59.66	541.864
59.68	614.113
59.7	596.051
59.72	686.362
59.74	632.175
59.76	487.678
59.78	451.554
59.8	523.802
59.82	523.802
59.84	487.678
59.86	487.678
59.88	596.051
59.9	614.113
59.92	776.672
59.94	415.429
59.96	361.243
59.98	505.74
60	668.299
305
59.98	307.056
60	505.74
