Sample	 
Comments	 
Filename	C:\Data\西出研\梅木\20211102オペ\LiTFSI24wt_02_0002_0049-1_C_2θ.raw
Goniometer	SmartLab(In-plane)
Attachment	標準Zステージ
Monochromater	None
X	0
Y	0
Z	0.01756
ScanningMode	2Theta
ScanningType	Continuos Scanning
X-Ray	40kV/30mA
入射スリット	0.300mm
受光スリット1	20.000mm
受光スリット2	20.000mm
None	
Start	5
Stop	60
Step	0.02
Speed	21.6746
Theta	0
5	6791.37
5.02	7008.11
5.04	6917.8
5.06	6990.05
5.08	7044.24
5.1	7080.36
5.12	7676.41
5.14	6971.99
5.16	6664.93
5.18	7026.18
5.2	7170.67
5.22	7495.79
5.24	6899.74
5.26	6899.74
5.28	7062.3
5.3	7206.8
5.32	7838.97
5.34	7622.23
5.36	7188.73
5.38	7080.36
5.4	6321.75
5.42	6628.81
5.44	6430.12
5.46	6177.25
5.48	6339.81
5.5	6682.99
5.52	6719.12
5.54	7062.3
5.56	6646.87
5.58	6448.19
5.6	6520.44
5.62	7134.55
5.64	6628.81
5.66	6050.82
5.68	7315.17
5.7	6664.93
5.72	6412.06
5.74	6502.37
5.76	6339.81
5.78	6664.93
5.8	6466.25
5.82	6213.38
5.84	6303.69
5.86	6610.75
5.88	6791.37
5.9	6990.05
5.92	6719.12
5.94	6682.99
5.96	6502.37
5.98	6990.05
6	6195.32
6.02	6412.06
6.04	6195.32
6.06	6646.87
6.08	6303.69
6.1	6375.94
6.12	6249.5
6.14	6538.5
6.16	6430.12
6.18	5924.38
6.2	6827.49
6.22	6213.38
6.24	6466.25
6.26	6592.68
6.28	6339.81
6.3	5870.2
6.32	6574.62
6.34	6502.37
6.36	5834.07
6.38	6141.13
6.4	5996.63
6.42	5816.01
6.44	6773.31
6.46	6123.07
6.48	5978.57
6.5	6628.81
6.52	6141.13
6.54	5960.51
6.56	5852.14
6.58	6195.32
6.6	6159.19
6.62	6430.12
6.64	5834.07
6.66	6086.94
6.68	5996.63
6.7	6159.19
6.72	6159.19
6.74	6357.88
6.76	6285.63
6.78	6249.5
6.8	6105.01
6.82	6303.69
6.84	5779.89
6.86	5816.01
6.88	5906.32
6.9	5870.2
6.92	5689.58
6.94	5725.7
6.96	5852.14
6.98	5870.2
7	5653.45
7.02	6123.07
7.04	6520.44
7.06	5310.27
7.08	5816.01
7.1	6195.32
7.12	6249.5
7.14	6448.19
7.16	6357.88
7.18	6321.75
7.2	6050.82
7.22	6123.07
7.24	6701.06
7.26	6249.5
7.28	6249.5
7.3	5689.58
7.32	5870.2
7.34	5454.77
7.36	5960.51
7.38	6050.82
7.4	6014.69
7.42	5436.71
7.44	5978.57
7.46	6159.19
7.48	5761.82
7.5	5418.64
7.52	6195.32
7.54	5292.21
7.56	5816.01
7.58	5816.01
7.6	6231.44
7.62	5201.9
7.64	5201.9
7.66	5310.27
7.68	5960.51
7.7	5364.46
7.72	5454.77
7.74	6430.12
7.76	5599.27
7.78	5129.65
7.8	5834.07
7.82	6267.56
7.84	5834.07
7.86	5256.08
7.88	5743.76
7.9	5581.2
7.92	5490.89
7.94	5563.14
7.96	5671.51
7.98	6195.32
8	5761.82
8.02	6195.32
8.04	6105.01
8.06	5834.07
8.08	5454.77
8.1	5779.89
8.12	5870.2
8.14	6068.88
8.16	5725.7
8.18	5870.2
8.2	5870.2
8.22	6430.12
8.24	5743.76
8.26	5960.51
8.28	5978.57
8.3	5256.08
8.32	5454.77
8.34	6484.31
8.36	5942.45
8.38	5418.64
8.4	5924.38
8.42	5238.02
8.44	5635.39
8.46	5834.07
8.48	6032.76
8.5	5761.82
8.52	5490.89
8.54	5527.02
8.56	5852.14
8.58	5400.58
8.6	5617.33
8.62	5689.58
8.64	5653.45
8.66	5834.07
8.68	6050.82
8.7	5129.65
8.72	6050.82
8.74	5328.33
8.76	5888.26
8.78	5689.58
8.8	5382.52
8.82	5743.76
8.84	6086.94
8.86	5508.95
8.88	5888.26
8.9	5671.51
8.92	5743.76
8.94	5852.14
8.96	5617.33
8.98	5942.45
9	5545.08
9.02	5400.58
9.04	5346.4
9.06	5201.9
9.08	5653.45
9.1	5400.58
9.12	4985.15
9.14	6285.63
9.16	5563.14
9.18	5852.14
9.2	5870.2
9.22	5490.89
9.24	5508.95
9.26	6086.94
9.28	5743.76
9.3	5797.95
9.32	5653.45
9.34	5870.2
9.36	5472.83
9.38	5924.38
9.4	5183.84
9.42	5563.14
9.44	5165.77
9.46	5653.45
9.48	5996.63
9.5	5581.2
9.52	5599.27
9.54	5617.33
9.56	5834.07
9.58	5563.14
9.6	5816.01
9.62	5653.45
9.64	6014.69
9.66	5563.14
9.68	5454.77
9.7	5906.32
9.72	5960.51
9.74	5508.95
9.76	5797.95
9.78	5400.58
9.8	5653.45
9.82	5816.01
9.84	5527.02
9.86	5256.08
9.88	5238.02
9.9	5816.01
9.92	5527.02
9.94	5508.95
9.96	5147.71
9.98	5003.21
10	5292.21
10.02	5165.77
10.04	6339.81
10.06	5725.7
10.08	5942.45
10.1	5779.89
10.12	6213.38
10.14	5617.33
10.16	6105.01
10.18	5852.14
10.2	5942.45
10.22	5653.45
10.24	6032.76
10.26	5725.7
10.28	5743.76
10.3	5581.2
10.32	5617.33
10.34	5725.7
10.36	5870.2
10.38	5003.21
10.4	5599.27
10.42	5563.14
10.44	5545.08
10.46	5671.51
10.48	5888.26
10.5	5490.89
10.52	6105.01
10.54	6267.56
10.56	5996.63
10.58	6249.5
10.6	6719.12
10.62	5978.57
10.64	6321.75
10.66	5852.14
10.68	6574.62
10.7	6502.37
10.72	6556.56
10.74	6339.81
10.76	7098.42
10.78	7026.18
10.8	6863.62
10.82	7459.67
10.84	6737.18
10.86	6303.69
10.88	6502.37
10.9	6574.62
10.92	6213.38
10.94	5310.27
10.96	6032.76
10.98	5852.14
11	5238.02
11.02	5906.32
11.04	5490.89
11.06	5978.57
11.08	5545.08
11.1	5779.89
11.12	5346.4
11.14	5274.15
11.16	6014.69
11.18	5743.76
11.2	5779.89
11.22	5816.01
11.24	5508.95
11.26	5201.9
11.28	5653.45
11.3	5888.26
11.32	5996.63
11.34	5743.76
11.36	5996.63
11.38	5490.89
11.4	5527.02
11.42	5942.45
11.44	6086.94
11.46	5743.76
11.48	5508.95
11.5	5581.2
11.52	5942.45
11.54	5888.26
11.56	5581.2
11.58	5906.32
11.6	5960.51
11.62	5996.63
11.64	5418.64
11.66	5454.77
11.68	6195.32
11.7	6014.69
11.72	5870.2
11.74	6086.94
11.76	5472.83
11.78	5924.38
11.8	5707.64
11.82	5870.2
11.84	6339.81
11.86	6195.32
11.88	6195.32
11.9	5617.33
11.92	6412.06
11.94	6592.68
11.96	5960.51
11.98	5418.64
12	6159.19
12.02	5996.63
12.04	6086.94
12.06	5743.76
12.08	5743.76
12.1	5599.27
12.12	6177.25
12.14	6213.38
12.16	5978.57
12.18	5725.7
12.2	5671.51
12.22	6195.32
12.24	5924.38
12.26	5906.32
12.28	5472.83
12.3	5328.33
12.32	5834.07
12.34	5834.07
12.36	5960.51
12.38	5996.63
12.4	5816.01
12.42	5707.64
12.44	5472.83
12.46	6177.25
12.48	5924.38
12.5	5942.45
12.52	6159.19
12.54	5852.14
12.56	5888.26
12.58	5978.57
12.6	5942.45
12.62	5924.38
12.64	5653.45
12.66	5996.63
12.68	6195.32
12.7	6195.32
12.72	5834.07
12.74	6267.56
12.76	5671.51
12.78	5653.45
12.8	6177.25
12.82	6068.88
12.84	5725.7
12.86	6123.07
12.88	5996.63
12.9	5834.07
12.92	5906.32
12.94	6231.44
12.96	5924.38
12.98	5924.38
13	6014.69
13.02	6141.13
13.04	5274.15
13.06	5852.14
13.08	6105.01
13.1	5834.07
13.12	5689.58
13.14	5581.2
13.16	6285.63
13.18	6141.13
13.2	5508.95
13.22	6339.81
13.24	6141.13
13.26	5581.2
13.28	6105.01
13.3	5707.64
13.32	5527.02
13.34	6032.76
13.36	5852.14
13.38	5581.2
13.4	5743.76
13.42	6123.07
13.44	5436.71
13.46	6267.56
13.48	6375.94
13.5	5942.45
13.52	5816.01
13.54	5834.07
13.56	5743.76
13.58	5707.64
13.6	5563.14
13.62	5978.57
13.64	6628.81
13.66	6646.87
13.68	5852.14
13.7	5834.07
13.72	6068.88
13.74	5599.27
13.76	5599.27
13.78	5472.83
13.8	5743.76
13.82	5653.45
13.84	5924.38
13.86	5906.32
13.88	6375.94
13.9	5689.58
13.92	5743.76
13.94	5617.33
13.96	5797.95
13.98	5238.02
14	6014.69
14.02	5418.64
14.04	5490.89
14.06	5147.71
14.08	5996.63
14.1	5797.95
14.12	5563.14
14.14	5671.51
14.16	5490.89
14.18	5238.02
14.2	5834.07
14.22	6032.76
14.24	5779.89
14.26	6032.76
14.28	5761.82
14.3	5797.95
14.32	5996.63
14.34	5689.58
14.36	5581.2
14.38	5707.64
14.4	5942.45
14.42	5888.26
14.44	5599.27
14.46	5671.51
14.48	5581.2
14.5	5256.08
14.52	5545.08
14.54	6213.38
14.56	5852.14
14.58	5527.02
14.6	6195.32
14.62	5292.21
14.64	5310.27
14.66	6430.12
14.68	6195.32
14.7	6159.19
14.72	5635.39
14.74	5292.21
14.76	5834.07
14.78	6412.06
14.8	5942.45
14.82	5671.51
14.84	5834.07
14.86	5870.2
14.88	5599.27
14.9	5292.21
14.92	5816.01
14.94	5834.07
14.96	5870.2
14.98	5870.2
15	5256.08
15.02	5653.45
15.04	6249.5
15.06	5364.46
15.08	5725.7
15.1	5599.27
15.12	5490.89
15.14	5527.02
15.16	5635.39
15.18	4696.16
15.2	5725.7
15.22	5581.2
15.24	5653.45
15.26	5400.58
15.28	5545.08
15.3	5039.34
15.32	5436.71
15.34	5310.27
15.36	5689.58
15.38	5870.2
15.4	5527.02
15.42	6195.32
15.44	5545.08
15.46	5292.21
15.48	5346.4
15.5	4967.09
15.52	5960.51
15.54	5021.28
15.56	5238.02
15.58	5418.64
15.6	6430.12
15.62	5563.14
15.64	5563.14
15.66	4858.72
15.68	5183.84
15.7	5274.15
15.72	5617.33
15.74	5003.21
15.76	4949.03
15.78	5075.46
15.8	5761.82
15.82	4949.03
15.84	5382.52
15.86	5671.51
15.88	5490.89
15.9	5797.95
15.92	5906.32
15.94	5888.26
15.96	5328.33
15.98	5256.08
16	5563.14
16.02	4985.15
16.04	4804.53
16.06	5219.96
16.08	5111.59
16.1	5418.64
16.12	5454.77
16.14	5599.27
16.16	5238.02
16.18	5653.45
16.2	5003.21
16.22	5924.38
16.24	5400.58
16.26	5075.46
16.28	4930.97
16.3	5671.51
16.32	4894.84
16.34	5111.59
16.36	5490.89
16.38	5852.14
16.4	5274.15
16.42	5888.26
16.44	5743.76
16.46	5219.96
16.48	5274.15
16.5	5581.2
16.52	5057.4
16.54	5400.58
16.56	5364.46
16.58	5996.63
16.6	5075.46
16.62	4334.92
16.64	5328.33
16.66	5328.33
16.68	5021.28
16.7	5292.21
16.72	4967.09
16.74	5328.33
16.76	4949.03
16.78	5238.02
16.8	5238.02
16.82	5057.4
16.84	5147.71
16.86	4894.84
16.88	5328.33
16.9	4930.97
16.92	5310.27
16.94	5653.45
16.96	5346.4
16.98	5382.52
17	5888.26
17.02	5147.71
17.04	5635.39
17.06	6321.75
17.08	6375.94
17.1	6448.19
17.12	6682.99
17.14	7929.28
17.16	7152.61
17.18	7712.54
17.2	7857.03
17.22	7026.18
17.24	7513.85
17.26	6845.55
17.28	6448.19
17.3	5093.53
17.32	5039.34
17.34	5418.64
17.36	5581.2
17.38	5129.65
17.4	5075.46
17.42	5165.77
17.44	4822.59
17.46	5219.96
17.48	5003.21
17.5	4894.84
17.52	4696.16
17.54	5075.46
17.56	4587.79
17.58	5201.9
17.6	5021.28
17.62	4840.66
17.64	4930.97
17.66	5454.77
17.68	5003.21
17.7	4822.59
17.72	4804.53
17.74	4678.1
17.76	5274.15
17.78	4660.03
17.8	4623.91
17.82	4569.72
17.84	4949.03
17.86	5021.28
17.88	5075.46
17.9	5436.71
17.92	5021.28
17.94	4967.09
17.96	5039.34
17.98	4930.97
18	5129.65
18.02	5725.7
18.04	5256.08
18.06	4660.03
18.08	5165.77
18.1	5382.52
18.12	4696.16
18.14	4840.66
18.16	4750.34
18.18	5238.02
18.2	4190.42
18.22	5490.89
18.24	5165.77
18.26	5165.77
18.28	5527.02
18.3	5635.39
18.32	5960.51
18.34	6249.5
18.36	5888.26
18.38	5147.71
18.4	5545.08
18.42	5382.52
18.44	5147.71
18.46	5400.58
18.48	4858.72
18.5	4587.79
18.52	5003.21
18.54	5021.28
18.56	5057.4
18.58	4497.47
18.6	4515.54
18.62	5003.21
18.64	4425.23
18.66	4750.34
18.68	4912.9
18.7	4840.66
18.72	4389.1
18.74	4623.91
18.76	4912.9
18.78	4949.03
18.8	4696.16
18.82	5183.84
18.84	4551.66
18.86	4949.03
18.88	4858.72
18.9	5292.21
18.92	4912.9
18.94	5238.02
18.96	6032.76
18.98	6231.44
19	5725.7
19.02	6520.44
19.04	6935.86
19.06	8037.66
19.08	8615.64
19.1	9320.07
19.12	9464.57
19.14	9898.06
19.16	9410.38
19.18	9464.57
19.2	7549.98
19.22	7495.79
19.24	7351.29
19.26	5490.89
19.28	5490.89
19.3	5310.27
19.32	5147.71
19.34	5147.71
19.36	5075.46
19.38	5292.21
19.4	4840.66
19.42	5093.53
19.44	4840.66
19.46	5201.9
19.48	4822.59
19.5	5201.9
19.52	5183.84
19.54	5238.02
19.56	5707.64
19.58	5346.4
19.6	4389.1
19.62	5382.52
19.64	5003.21
19.66	5310.27
19.68	5165.77
19.7	4840.66
19.72	4443.29
19.74	4533.6
19.76	4316.85
19.78	4082.05
19.8	5201.9
19.82	4696.16
19.84	4551.66
19.86	4208.48
19.88	5147.71
19.9	4641.97
19.92	4967.09
19.94	4515.54
19.96	4497.47
19.98	4587.79
20	4876.78
20.02	5219.96
20.04	4732.28
20.06	4876.78
20.08	5147.71
20.1	4641.97
20.12	4497.47
20.14	4425.23
20.16	4533.6
20.18	5093.53
20.2	4280.73
20.22	4461.35
20.24	4118.17
20.26	4605.85
20.28	4641.97
20.3	4912.9
20.32	4371.04
20.34	4443.29
20.36	4515.54
20.38	4569.72
20.4	4678.1
20.42	3991.73
20.44	4100.11
20.46	4425.23
20.48	4696.16
20.5	4118.17
20.52	4587.79
20.54	4316.85
20.56	4912.9
20.58	4389.1
20.6	4443.29
20.62	4443.29
20.64	4443.29
20.66	4334.92
20.68	4551.66
20.7	4244.6
20.72	4876.78
20.74	4569.72
20.76	4154.29
20.78	4136.23
20.8	4208.48
20.82	4027.86
20.84	4389.1
20.86	4154.29
20.88	4352.98
20.9	4858.72
20.92	4786.47
20.94	4262.67
20.96	4172.36
20.98	3901.42
21	3901.42
21.02	4100.11
21.04	4461.35
21.06	4479.41
21.08	5147.71
21.1	4515.54
21.12	4461.35
21.14	4443.29
21.16	4985.15
21.18	4786.47
21.2	4750.34
21.22	4696.16
21.24	4334.92
21.26	4551.66
21.28	4407.16
21.3	4389.1
21.32	4063.98
21.34	4696.16
21.36	4027.86
21.38	4407.16
21.4	4461.35
21.42	4750.34
21.44	3919.49
21.46	4262.67
21.48	4226.54
21.5	4389.1
21.52	4316.85
21.54	4352.98
21.56	4190.42
21.58	4569.72
21.6	4786.47
21.62	4605.85
21.64	4623.91
21.66	3612.43
21.68	3991.73
21.7	4641.97
21.72	4768.41
21.74	4208.48
21.76	4533.6
21.78	4407.16
21.8	4190.42
21.82	4587.79
21.84	4569.72
21.86	4027.86
21.88	3720.8
21.9	4334.92
21.92	4678.1
21.94	4334.92
21.96	4280.73
21.98	4533.6
22	3793.05
22.02	4389.1
22.04	4696.16
22.06	3774.99
22.08	4063.98
22.1	4190.42
22.12	4443.29
22.14	3973.67
22.16	3883.36
22.18	4407.16
22.2	4045.92
22.22	4371.04
22.24	4298.79
22.26	4352.98
22.28	4497.47
22.3	3720.8
22.32	3720.8
22.34	3991.73
22.36	3883.36
22.38	4858.72
22.4	4316.85
22.42	4208.48
22.44	3901.42
22.46	3793.05
22.48	4190.42
22.5	4063.98
22.52	3883.36
22.54	4208.48
22.56	4262.67
22.58	3847.24
22.6	4298.79
22.62	4100.11
22.64	4461.35
22.66	3774.99
22.68	4063.98
22.7	4154.29
22.72	4027.86
22.74	4154.29
22.76	3720.8
22.78	4443.29
22.8	4262.67
22.82	3811.11
22.84	3811.11
22.86	4334.92
22.88	3937.55
22.9	4696.16
22.92	4208.48
22.94	4154.29
22.96	4714.22
22.98	4587.79
23	4678.1
23.02	4569.72
23.04	5545.08
23.06	5219.96
23.08	5942.45
23.1	5870.2
23.12	4894.84
23.14	5599.27
23.16	4985.15
23.18	4696.16
23.2	5039.34
23.22	4190.42
23.24	4082.05
23.26	3865.3
23.28	4063.98
23.3	3955.61
23.32	3774.99
23.34	4082.05
23.36	4262.67
23.38	4082.05
23.4	4389.1
23.42	4352.98
23.44	4551.66
23.46	4063.98
23.48	4226.54
23.5	4027.86
23.52	3883.36
23.54	4262.67
23.56	4136.23
23.58	3937.55
23.6	4118.17
23.62	3829.18
23.64	3774.99
23.66	3648.55
23.68	3377.62
23.7	3720.8
23.72	3431.81
23.74	3323.44
23.76	4172.36
23.78	3937.55
23.8	3594.37
23.82	3738.86
23.84	3793.05
23.86	3684.68
23.88	3901.42
23.9	3540.18
23.92	3612.43
23.94	3666.62
23.96	3684.68
23.98	3702.74
24	3955.61
24.02	3323.44
24.04	4027.86
24.06	3811.11
24.08	3829.18
24.1	3666.62
24.12	3720.8
24.14	3576.31
24.16	4082.05
24.18	3720.8
24.2	3829.18
24.22	3865.3
24.24	3919.49
24.26	3829.18
24.28	3973.67
24.3	3648.55
24.32	3504.06
24.34	3648.55
24.36	3630.49
24.38	3377.62
24.4	4136.23
24.42	4063.98
24.44	4190.42
24.46	4226.54
24.48	4118.17
24.5	4027.86
24.52	4407.16
24.54	4912.9
24.56	5093.53
24.58	5310.27
24.6	5816.01
24.62	5978.57
24.64	5960.51
24.66	5238.02
24.68	5527.02
24.7	5635.39
24.72	5436.71
24.74	5003.21
24.76	4930.97
24.78	4930.97
24.8	5201.9
24.82	4569.72
24.84	4750.34
24.86	5418.64
24.88	4985.15
24.9	5328.33
24.92	5292.21
24.94	5057.4
24.96	5183.84
24.98	4605.85
25	4298.79
25.02	4660.03
25.04	4063.98
25.06	3449.87
25.08	3485.99
25.1	4045.92
25.12	3612.43
25.14	3973.67
25.16	3612.43
25.18	3431.81
25.2	3233.12
25.22	3305.37
25.24	3955.61
25.26	3395.68
25.28	3648.55
25.3	3034.44
25.32	3413.75
25.34	3504.06
25.36	3540.18
25.38	3016.38
25.4	2835.76
25.42	2745.45
25.44	2998.32
25.46	3540.18
25.48	3305.37
25.5	3160.88
25.52	3215.06
25.54	3178.94
25.56	2998.32
25.58	3648.55
25.6	3558.24
25.62	2781.57
25.64	3287.31
25.66	3359.56
25.68	3215.06
25.7	3323.44
25.72	3124.75
25.74	2727.38
25.76	2908.01
25.78	2998.32
25.8	3413.75
25.82	3233.12
25.84	2926.07
25.86	3251.19
25.88	3485.99
25.9	3052.5
25.92	2944.13
25.94	3016.38
25.96	3106.69
25.98	3088.63
26	2998.32
26.02	2799.63
26.04	2926.07
26.06	3052.5
26.08	3142.81
26.1	2619.01
26.12	2727.38
26.14	2835.76
26.16	3160.88
26.18	2546.76
26.2	3016.38
26.22	2817.69
26.24	2926.07
26.26	2799.63
26.28	2799.63
26.3	3251.19
26.32	2908.01
26.34	2998.32
26.36	2637.07
26.38	2709.32
26.4	3178.94
26.42	3142.81
26.44	2835.76
26.46	2709.32
26.48	2871.88
26.5	2853.82
26.52	2835.76
26.54	2745.45
26.56	2962.19
26.58	2546.76
26.6	2564.82
26.62	2980.25
26.64	3341.5
26.66	2402.27
26.68	2799.63
26.7	2944.13
26.72	2311.95
26.74	2799.63
26.76	2402.27
26.78	2727.38
26.8	2673.2
26.82	2745.45
26.84	3124.75
26.86	2402.27
26.88	2962.19
26.9	2908.01
26.92	2546.76
26.94	2799.63
26.96	2474.51
26.98	2510.64
27	2908.01
27.02	2763.51
27.04	2420.33
27.06	2564.82
27.08	2691.26
27.1	2474.51
27.12	2528.7
27.14	2908.01
27.16	2456.45
27.18	2637.07
27.2	2673.2
27.22	2673.2
27.24	2655.14
27.26	2474.51
27.28	2059.08
27.3	2582.89
27.32	2908.01
27.34	2781.57
27.36	2564.82
27.38	2330.02
27.4	2582.89
27.42	2492.58
27.44	2474.51
27.46	2655.14
27.48	2564.82
27.5	2546.76
27.52	2637.07
27.54	2528.7
27.56	2763.51
27.58	2817.69
27.6	2799.63
27.62	2546.76
27.64	2528.7
27.66	2131.33
27.68	2835.76
27.7	2709.32
27.72	2456.45
27.74	2673.2
27.76	2456.45
27.78	2348.08
27.8	2221.64
27.82	2438.39
27.84	2366.14
27.86	2077.15
27.88	2510.64
27.9	2456.45
27.92	2438.39
27.94	2673.2
27.96	2619.01
27.98	2962.19
28	2655.14
28.02	2510.64
28.04	2221.64
28.06	2510.64
28.08	2908.01
28.1	2239.71
28.12	2384.2
28.14	2438.39
28.16	2041.02
28.18	2330.02
28.2	2781.57
28.22	2546.76
28.24	2763.51
28.26	2474.51
28.28	2673.2
28.3	2366.14
28.32	2185.52
28.34	2293.89
28.36	2330.02
28.38	2257.77
28.4	2438.39
28.42	2149.4
28.44	2673.2
28.46	2330.02
28.48	2474.51
28.5	2402.27
28.52	2673.2
28.54	2330.02
28.56	2203.58
28.58	2366.14
28.6	2330.02
28.62	2510.64
28.64	2528.7
28.66	2438.39
28.68	2275.83
28.7	2781.57
28.72	3160.88
28.74	2944.13
28.76	2673.2
28.78	2944.13
28.8	2619.01
28.82	3016.38
28.84	3197
28.86	3251.19
28.88	2691.26
28.9	3124.75
28.92	3160.88
28.94	3088.63
28.96	2637.07
28.98	2889.94
29	2510.64
29.02	2528.7
29.04	2257.77
29.06	2402.27
29.08	2203.58
29.1	2257.77
29.12	2113.27
29.14	2330.02
29.16	2022.96
29.18	2330.02
29.2	2149.4
29.22	2149.4
29.24	2420.33
29.26	2582.89
29.28	2131.33
29.3	2257.77
29.32	2004.9
29.34	1968.77
29.36	2203.58
29.38	2095.21
29.4	2004.9
29.42	2167.46
29.44	1860.4
29.46	1968.77
29.48	2185.52
29.5	2257.77
29.52	2022.96
29.54	2131.33
29.56	2203.58
29.58	1968.77
29.6	2330.02
29.62	2239.71
29.64	2059.08
29.66	1878.46
29.68	1986.84
29.7	2293.89
29.72	1806.21
29.74	2059.08
29.76	2041.02
29.78	1661.72
29.8	2221.64
29.82	2221.64
29.84	2077.15
29.86	2095.21
29.88	2185.52
29.9	1950.71
29.92	2330.02
29.94	2004.9
29.96	2059.08
29.98	2257.77
30	1932.65
30.02	2402.27
30.04	2095.21
30.06	2149.4
30.08	2022.96
30.1	2095.21
30.12	2131.33
30.14	2095.21
30.16	2149.4
30.18	1986.84
30.2	2149.4
30.22	1896.53
30.24	2041.02
30.26	2095.21
30.28	2257.77
30.3	2131.33
30.32	2149.4
30.34	2239.71
30.36	1896.53
30.38	2131.33
30.4	2239.71
30.42	1896.53
30.44	2113.27
30.46	2113.27
30.48	2185.52
30.5	2366.14
30.52	2203.58
30.54	2041.02
30.56	1788.15
30.58	1517.22
30.6	2041.02
30.62	1932.65
30.64	2221.64
30.66	2438.39
30.68	2438.39
30.7	2131.33
30.72	1968.77
30.74	1788.15
30.76	1860.4
30.78	2004.9
30.8	1986.84
30.82	2004.9
30.84	1679.78
30.86	1752.03
30.88	1770.09
30.9	2257.77
30.92	1950.71
30.94	1842.34
30.96	1986.84
30.98	1986.84
31	2149.4
31.02	2221.64
31.04	1860.4
31.06	1752.03
31.08	1914.59
31.1	1752.03
31.12	2149.4
31.14	2004.9
31.16	1878.46
31.18	1824.28
31.2	2149.4
31.22	2113.27
31.24	2004.9
31.26	1914.59
31.28	1715.9
31.3	2004.9
31.32	1806.21
31.34	1715.9
31.36	2041.02
31.38	2041.02
31.4	2185.52
31.42	1824.28
31.44	1842.34
31.46	1697.84
31.48	1788.15
31.5	2004.9
31.52	2131.33
31.54	1896.53
31.56	1932.65
31.58	1986.84
31.6	1932.65
31.62	1770.09
31.64	2113.27
31.66	1932.65
31.68	1932.65
31.7	1679.78
31.72	1950.71
31.74	2077.15
31.76	1788.15
31.78	2077.15
31.8	2041.02
31.82	1950.71
31.84	2041.02
31.86	1968.77
31.88	2041.02
31.9	2257.77
31.92	2474.51
31.94	2871.88
31.96	2221.64
31.98	2582.89
32	2167.46
32.02	2330.02
32.04	2330.02
32.06	2293.89
32.08	2185.52
32.1	2239.71
32.12	1697.84
32.14	1860.4
32.16	1842.34
32.18	1788.15
32.2	1950.71
32.22	1986.84
32.24	1968.77
32.26	1950.71
32.28	1932.65
32.3	1643.66
32.32	1679.78
32.34	1896.53
32.36	1860.4
32.38	2041.02
32.4	1968.77
32.42	1968.77
32.44	1932.65
32.46	1896.53
32.48	1770.09
32.5	1697.84
32.52	1733.97
32.54	1950.71
32.56	1625.59
32.58	1986.84
32.6	1697.84
32.62	1968.77
32.64	1788.15
32.66	1770.09
32.68	1679.78
32.7	1733.97
32.72	1968.77
32.74	1517.22
32.76	1733.97
32.78	2095.21
32.8	2059.08
32.82	2149.4
32.84	1806.21
32.86	1932.65
32.88	2131.33
32.9	2131.33
32.92	2366.14
32.94	2004.9
32.96	2167.46
32.98	2239.71
33	2113.27
33.02	2004.9
33.04	2384.2
33.06	2348.08
33.08	1824.28
33.1	2004.9
33.12	2149.4
33.14	2348.08
33.16	2582.89
33.18	2655.14
33.2	3034.44
33.22	2980.25
33.24	2944.13
33.26	2926.07
33.28	3558.24
33.3	3720.8
33.32	3251.19
33.34	3269.25
33.36	3269.25
33.38	3323.44
33.4	3016.38
33.42	2908.01
33.44	2600.95
33.46	2041.02
33.48	2022.96
33.5	2366.14
33.52	1770.09
33.54	2239.71
33.56	2239.71
33.58	1932.65
33.6	2077.15
33.62	1896.53
33.64	1661.72
33.66	1824.28
33.68	1481.1
33.7	1752.03
33.72	1968.77
33.74	1824.28
33.76	1878.46
33.78	1806.21
33.8	1878.46
33.82	1607.53
33.84	1679.78
33.86	1770.09
33.88	1878.46
33.9	1571.41
33.92	1950.71
33.94	1752.03
33.96	1896.53
33.98	1806.21
34	1589.47
34.02	1878.46
34.04	1860.4
34.06	1842.34
34.08	1679.78
34.1	1788.15
34.12	1535.28
34.14	1860.4
34.16	1932.65
34.18	1770.09
34.2	1842.34
34.22	1878.46
34.24	1752.03
34.26	1625.59
34.28	1697.84
34.3	1661.72
34.32	1607.53
34.34	1661.72
34.36	1444.97
34.38	1408.85
34.4	1878.46
34.42	1715.9
34.44	1589.47
34.46	1589.47
34.48	1914.59
34.5	1535.28
34.52	1535.28
34.54	1824.28
34.56	1679.78
34.58	1788.15
34.6	1535.28
34.62	1986.84
34.64	2041.02
34.66	1950.71
34.68	1788.15
34.7	2095.21
34.72	1842.34
34.74	1860.4
34.76	1860.4
34.78	1697.84
34.8	1860.4
34.82	1932.65
34.84	1770.09
34.86	1625.59
34.88	2131.33
34.9	1607.53
34.92	1752.03
34.94	1733.97
34.96	1354.66
34.98	1589.47
35	1752.03
35.02	1481.1
35.04	1679.78
35.06	1444.97
35.08	1697.84
35.1	1679.78
35.12	1481.1
35.14	1553.34
35.16	1535.28
35.18	1625.59
35.2	1697.84
35.22	1770.09
35.24	1408.85
35.26	1517.22
35.28	1517.22
35.3	1589.47
35.32	1517.22
35.34	1463.03
35.36	1517.22
35.38	1589.47
35.4	2022.96
35.42	1661.72
35.44	1463.03
35.46	1499.16
35.48	1444.97
35.5	1517.22
35.52	1517.22
35.54	1553.34
35.56	1661.72
35.58	1390.79
35.6	1372.72
35.62	1408.85
35.64	1426.91
35.66	1535.28
35.68	1336.6
35.7	1535.28
35.72	1426.91
35.74	1770.09
35.76	1390.79
35.78	1499.16
35.8	1444.97
35.82	1625.59
35.84	1535.28
35.86	1499.16
35.88	1174.04
35.9	1264.35
35.92	1372.72
35.94	1643.66
35.96	1192.1
35.98	1354.66
36	1733.97
36.02	1589.47
36.04	1571.41
36.06	1896.53
36.08	1264.35
36.1	1661.72
36.12	1553.34
36.14	1661.72
36.16	1463.03
36.18	1697.84
36.2	1408.85
36.22	1318.54
36.24	1481.1
36.26	1589.47
36.28	1679.78
36.3	1643.66
36.32	1860.4
36.34	1444.97
36.36	1806.21
36.38	1661.72
36.4	1643.66
36.42	1806.21
36.44	1806.21
36.46	1770.09
36.48	1499.16
36.5	1390.79
36.52	1643.66
36.54	1571.41
36.56	1390.79
36.58	1444.97
36.6	1463.03
36.62	1336.6
36.64	1661.72
36.66	1824.28
36.68	1571.41
36.7	1752.03
36.72	1354.66
36.74	1354.66
36.76	1372.72
36.78	1517.22
36.8	1643.66
36.82	1390.79
36.84	1625.59
36.86	1354.66
36.88	1119.85
36.9	1517.22
36.92	1607.53
36.94	1481.1
36.96	1463.03
36.98	1625.59
37	1336.6
37.02	1607.53
37.04	1733.97
37.06	1426.91
37.08	1625.59
37.1	1679.78
37.12	1571.41
37.14	1481.1
37.16	1752.03
37.18	1806.21
37.2	1481.1
37.22	1390.79
37.24	1589.47
37.26	1481.1
37.28	1444.97
37.3	1426.91
37.32	1679.78
37.34	1282.41
37.36	1679.78
37.38	1426.91
37.4	1571.41
37.42	1444.97
37.44	1752.03
37.46	1282.41
37.48	1336.6
37.5	1246.29
37.52	1282.41
37.54	1282.41
37.56	1390.79
37.58	1174.04
37.6	1246.29
37.62	1282.41
37.64	1155.98
37.66	1607.53
37.68	1463.03
37.7	1625.59
37.72	1788.15
37.74	1679.78
37.76	1336.6
37.78	1571.41
37.8	1444.97
37.82	1661.72
37.84	1553.34
37.86	1535.28
37.88	1752.03
37.9	1661.72
37.92	2131.33
37.94	1824.28
37.96	1770.09
37.98	2131.33
38	2095.21
38.02	2113.27
38.04	2221.64
38.06	2600.95
38.08	2041.02
38.1	2637.07
38.12	2402.27
38.14	2275.83
38.16	2059.08
38.18	2022.96
38.2	2257.77
38.22	2041.02
38.24	2077.15
38.26	2095.21
38.28	1968.77
38.3	1968.77
38.32	1950.71
38.34	1896.53
38.36	1914.59
38.38	2004.9
38.4	1824.28
38.42	1770.09
38.44	1625.59
38.46	1842.34
38.48	1607.53
38.5	1625.59
38.52	1679.78
38.54	1733.97
38.56	1589.47
38.58	1463.03
38.6	1535.28
38.62	1607.53
38.64	1390.79
38.66	1408.85
38.68	1372.72
38.7	1444.97
38.72	1661.72
38.74	1752.03
38.76	1481.1
38.78	1571.41
38.8	1625.59
38.82	1372.72
38.84	1228.23
38.86	1535.28
38.88	1426.91
38.9	1155.98
38.92	1300.47
38.94	1625.59
38.96	1643.66
38.98	1535.28
39	1463.03
39.02	1390.79
39.04	1354.66
39.06	1192.1
39.08	1499.16
39.1	1264.35
39.12	1372.72
39.14	1535.28
39.16	1463.03
39.18	1372.72
39.2	1300.47
39.22	1246.29
39.24	1354.66
39.26	1517.22
39.28	1444.97
39.3	1408.85
39.32	1174.04
39.34	1499.16
39.36	1354.66
39.38	1155.98
39.4	1607.53
39.42	1192.1
39.44	1463.03
39.46	1210.16
39.48	1210.16
39.5	1083.73
39.52	957.294
39.54	1463.03
39.56	1300.47
39.58	1426.91
39.6	1119.85
39.62	1372.72
39.64	1318.54
39.66	1246.29
39.68	1408.85
39.7	1318.54
39.72	1625.59
39.74	1517.22
39.76	1336.6
39.78	1481.1
39.8	1228.23
39.82	1264.35
39.84	1300.47
39.86	1408.85
39.88	1372.72
39.9	1481.1
39.92	1318.54
39.94	1155.98
39.96	957.294
39.98	1011.48
40	1499.16
40.02	1228.23
40.04	1246.29
40.06	993.418
40.08	1119.85
40.1	1065.67
40.12	1553.34
40.14	1517.22
40.16	1408.85
40.18	1282.41
40.2	1119.85
40.22	1264.35
40.24	1300.47
40.26	1119.85
40.28	1300.47
40.3	1228.23
40.32	1246.29
40.34	1336.6
40.36	957.294
40.38	1174.04
40.4	1047.6
40.42	1083.73
40.44	1192.1
40.46	1174.04
40.48	1119.85
40.5	957.294
40.52	1192.1
40.54	1264.35
40.56	1264.35
40.58	1246.29
40.6	1246.29
40.62	1336.6
40.64	1354.66
40.66	1119.85
40.68	1408.85
40.7	1300.47
40.72	1589.47
40.74	1354.66
40.76	1300.47
40.78	1499.16
40.8	1444.97
40.82	1426.91
40.84	1300.47
40.86	1210.16
40.88	1336.6
40.9	1517.22
40.92	1553.34
40.94	1210.16
40.96	1354.66
40.98	1336.6
41	1444.97
41.02	1300.47
41.04	1354.66
41.06	1336.6
41.08	1372.72
41.1	1499.16
41.12	1264.35
41.14	1444.97
41.16	1300.47
41.18	1246.29
41.2	1174.04
41.22	1137.92
41.24	1192.1
41.26	1083.73
41.28	1119.85
41.3	1155.98
41.32	1047.6
41.34	1282.41
41.36	1264.35
41.38	1137.92
41.4	1155.98
41.42	1210.16
41.44	1101.79
41.46	1354.66
41.48	1065.67
41.5	1083.73
41.52	1300.47
41.54	1228.23
41.56	1192.1
41.58	1155.98
41.6	1174.04
41.62	1083.73
41.64	1282.41
41.66	1210.16
41.68	1264.35
41.7	1119.85
41.72	1228.23
41.74	1011.48
41.76	1408.85
41.78	1210.16
41.8	1354.66
41.82	1174.04
41.84	1174.04
41.86	1119.85
41.88	1119.85
41.9	1300.47
41.92	1336.6
41.94	939.232
41.96	1011.48
41.98	1264.35
42	1192.1
42.02	1210.16
42.04	1083.73
42.06	1029.54
42.08	1065.67
42.1	1318.54
42.12	1228.23
42.14	1246.29
42.16	1174.04
42.18	1210.16
42.2	1083.73
42.22	1101.79
42.24	1246.29
42.26	1264.35
42.28	1318.54
42.3	1444.97
42.32	1408.85
42.34	1463.03
42.36	1372.72
42.38	1264.35
42.4	1481.1
42.42	1264.35
42.44	1426.91
42.46	1336.6
42.48	1264.35
42.5	1210.16
42.52	1444.97
42.54	1119.85
42.56	1047.6
42.58	1210.16
42.6	1174.04
42.62	1228.23
42.64	1192.1
42.66	1354.66
42.68	1282.41
42.7	939.232
42.72	903.107
42.74	1318.54
42.76	1463.03
42.78	1228.23
42.8	1372.72
42.82	1192.1
42.84	1517.22
42.86	1481.1
42.88	1264.35
42.9	1463.03
42.92	1119.85
42.94	1679.78
42.96	1155.98
42.98	1174.04
43	1210.16
43.02	1029.54
43.04	1463.03
43.06	1029.54
43.08	1137.92
43.1	1318.54
43.12	1083.73
43.14	1174.04
43.16	1155.98
43.18	1174.04
43.2	1426.91
43.22	1282.41
43.24	1155.98
43.26	1047.6
43.28	1264.35
43.3	1282.41
43.32	1246.29
43.34	1210.16
43.36	1155.98
43.38	1174.04
43.4	1029.54
43.42	957.294
43.44	1155.98
43.46	1155.98
43.48	1318.54
43.5	1174.04
43.52	957.294
43.54	848.921
43.56	1192.1
43.58	866.983
43.6	1192.1
43.62	1083.73
43.64	1282.41
43.66	1065.67
43.68	1300.47
43.7	1390.79
43.72	1228.23
43.74	1336.6
43.76	1246.29
43.78	1463.03
43.8	1246.29
43.82	1065.67
43.84	1065.67
43.86	1264.35
43.88	1083.73
43.9	1318.54
43.92	1390.79
43.94	1535.28
43.96	1517.22
43.98	1174.04
44	1372.72
44.02	1282.41
44.04	1390.79
44.06	1625.59
44.08	1336.6
44.1	1174.04
44.12	1264.35
44.14	1137.92
44.16	1210.16
44.18	1155.98
44.2	1300.47
44.22	1444.97
44.24	1354.66
44.26	1210.16
44.28	1444.97
44.3	1318.54
44.32	1300.47
44.34	1246.29
44.36	1733.97
44.38	1426.91
44.4	1535.28
44.42	1336.6
44.44	1372.72
44.46	1318.54
44.48	1174.04
44.5	1625.59
44.52	1137.92
44.54	1336.6
44.56	1119.85
44.58	1589.47
44.6	1083.73
44.62	1065.67
44.64	1228.23
44.66	1228.23
44.68	1101.79
44.7	1101.79
44.72	1065.67
44.74	1155.98
44.76	1210.16
44.78	1137.92
44.8	957.294
44.82	1228.23
44.84	1246.29
44.86	1354.66
44.88	1119.85
44.9	1137.92
44.92	1174.04
44.94	1174.04
44.96	1192.1
44.98	1264.35
45	1246.29
45.02	1101.79
45.04	1155.98
45.06	794.734
45.08	1174.04
45.1	1029.54
45.12	957.294
45.14	1300.47
45.16	939.232
45.18	1137.92
45.2	1155.98
45.22	1083.73
45.24	1119.85
45.26	1137.92
45.28	1228.23
45.3	812.797
45.32	1228.23
45.34	1119.85
45.36	1011.48
45.38	812.797
45.4	957.294
45.42	1246.29
45.44	975.356
45.46	1047.6
45.48	1174.04
45.5	939.232
45.52	1029.54
45.54	1011.48
45.56	1210.16
45.58	1101.79
45.6	1101.79
45.62	1155.98
45.64	1137.92
45.66	1354.66
45.68	1083.73
45.7	1119.85
45.72	1065.67
45.74	1228.23
45.76	1155.98
45.78	1192.1
45.8	740.548
45.82	903.107
45.84	866.983
45.86	939.232
45.88	957.294
45.9	993.418
45.92	975.356
45.94	866.983
45.96	758.61
45.98	1011.48
46	1119.85
46.02	1174.04
46.04	975.356
46.06	1336.6
46.08	1047.6
46.1	939.232
46.12	993.418
46.14	1047.6
46.16	1192.1
46.18	1192.1
46.2	1228.23
46.22	939.232
46.24	993.418
46.26	1029.54
46.28	1137.92
46.3	921.169
46.32	903.107
46.34	1174.04
46.36	830.859
46.38	1119.85
46.4	993.418
46.42	957.294
46.44	921.169
46.46	1011.48
46.48	1011.48
46.5	1011.48
46.52	975.356
46.54	1137.92
46.56	830.859
46.58	1174.04
46.6	1011.48
46.62	993.418
46.64	1444.97
46.66	1192.1
46.68	1011.48
46.7	1228.23
46.72	903.107
46.74	1119.85
46.76	1174.04
46.78	1210.16
46.8	939.232
46.82	1499.16
46.84	1174.04
46.86	993.418
46.88	1426.91
46.9	1210.16
46.92	1119.85
46.94	1065.67
46.96	1174.04
46.98	975.356
47	921.169
47.02	921.169
47.04	1083.73
47.06	975.356
47.08	1155.98
47.1	1011.48
47.12	1011.48
47.14	1101.79
47.16	993.418
47.18	939.232
47.2	1047.6
47.22	1155.98
47.24	1246.29
47.26	1083.73
47.28	1065.67
47.3	1029.54
47.32	993.418
47.34	885.045
47.36	1192.1
47.38	866.983
47.4	1228.23
47.42	1192.1
47.44	1137.92
47.46	830.859
47.48	1174.04
47.5	794.734
47.52	957.294
47.54	903.107
47.56	866.983
47.58	1137.92
47.6	1029.54
47.62	812.797
47.64	1119.85
47.66	993.418
47.68	921.169
47.7	993.418
47.72	794.734
47.74	1137.92
47.76	1065.67
47.78	921.169
47.8	1065.67
47.82	812.797
47.84	1029.54
47.86	1192.1
47.88	939.232
47.9	939.232
47.92	975.356
47.94	1083.73
47.96	1210.16
47.98	1192.1
48	1174.04
48.02	1065.67
48.04	1228.23
48.06	1101.79
48.08	903.107
48.1	1192.1
48.12	758.61
48.14	993.418
48.16	1155.98
48.18	1246.29
48.2	1101.79
48.22	1047.6
48.24	1137.92
48.26	1137.92
48.28	1011.48
48.3	1101.79
48.32	1065.67
48.34	1083.73
48.36	1101.79
48.38	686.362
48.4	1065.67
48.42	1101.79
48.44	1011.48
48.46	1047.6
48.48	1029.54
48.5	1390.79
48.52	921.169
48.54	975.356
48.56	1011.48
48.58	939.232
48.6	1029.54
48.62	1083.73
48.64	866.983
48.66	975.356
48.68	903.107
48.7	794.734
48.72	993.418
48.74	866.983
48.76	794.734
48.78	939.232
48.8	993.418
48.82	885.045
48.84	957.294
48.86	1174.04
48.88	794.734
48.9	632.175
48.92	704.424
48.94	1210.16
48.96	776.672
48.98	975.356
49	885.045
49.02	830.859
49.04	848.921
49.06	830.859
49.08	812.797
49.1	776.672
49.12	957.294
49.14	993.418
49.16	866.983
49.18	903.107
49.2	975.356
49.22	975.356
49.24	704.424
49.26	794.734
49.28	975.356
49.3	866.983
49.32	866.983
49.34	885.045
49.36	921.169
49.38	975.356
49.4	740.548
49.42	939.232
49.44	903.107
49.46	1065.67
49.48	903.107
49.5	957.294
49.52	939.232
49.54	903.107
49.56	830.859
49.58	830.859
49.6	758.61
49.62	704.424
49.64	776.672
49.66	993.418
49.68	885.045
49.7	848.921
49.72	866.983
49.74	848.921
49.76	1192.1
49.78	939.232
49.8	776.672
49.82	686.362
49.84	885.045
49.86	758.61
49.88	776.672
49.9	812.797
49.92	1029.54
49.94	957.294
49.96	921.169
49.98	1029.54
50	921.169
50.02	740.548
50.04	1083.73
50.06	1065.67
50.08	957.294
50.1	848.921
50.12	614.113
50.14	957.294
50.16	1083.73
50.18	776.672
50.2	830.859
50.22	921.169
50.24	939.232
50.26	957.294
50.28	903.107
50.3	848.921
50.32	939.232
50.34	975.356
50.36	975.356
50.38	1137.92
50.4	668.299
50.42	740.548
50.44	957.294
50.46	957.294
50.48	957.294
50.5	903.107
50.52	1174.04
50.54	957.294
50.56	939.232
50.58	885.045
50.6	866.983
50.62	975.356
50.64	1174.04
50.66	939.232
50.68	740.548
50.7	1101.79
50.72	812.797
50.74	848.921
50.76	957.294
50.78	794.734
50.8	957.294
50.82	975.356
50.84	848.921
50.86	776.672
50.88	1065.67
50.9	758.61
50.92	758.61
50.94	993.418
50.96	1155.98
50.98	1047.6
51	903.107
51.02	957.294
51.04	903.107
51.06	885.045
51.08	812.797
51.1	903.107
51.12	776.672
51.14	975.356
51.16	939.232
51.18	921.169
51.2	848.921
51.22	848.921
51.24	903.107
51.26	1119.85
51.28	957.294
51.3	794.734
51.32	812.797
51.34	848.921
51.36	921.169
51.38	848.921
51.4	957.294
51.42	776.672
51.44	993.418
51.46	668.299
51.48	740.548
51.5	866.983
51.52	758.61
51.54	885.045
51.56	722.486
51.58	830.859
51.6	794.734
51.62	740.548
51.64	866.983
51.66	957.294
51.68	1083.73
51.7	1065.67
51.72	921.169
51.74	830.859
51.76	866.983
51.78	686.362
51.8	650.237
51.82	812.797
51.84	885.045
51.86	848.921
51.88	794.734
51.9	722.486
51.92	722.486
51.94	1047.6
51.96	722.486
51.98	740.548
52	614.113
52.02	758.61
52.04	975.356
52.06	794.734
52.08	830.859
52.1	704.424
52.12	975.356
52.14	848.921
52.16	957.294
52.18	1083.73
52.2	704.424
52.22	668.299
52.24	885.045
52.26	921.169
52.28	704.424
52.3	957.294
52.32	957.294
52.34	686.362
52.36	776.672
52.38	704.424
52.4	451.554
52.42	812.797
52.44	903.107
52.46	794.734
52.48	866.983
52.5	885.045
52.52	668.299
52.54	758.61
52.56	848.921
52.58	632.175
52.6	758.61
52.62	921.169
52.64	632.175
52.66	939.232
52.68	740.548
52.7	776.672
52.72	722.486
52.74	722.486
52.76	758.61
52.78	758.61
52.8	957.294
52.82	776.672
52.84	848.921
52.86	668.299
52.88	632.175
52.9	903.107
52.92	794.734
52.94	903.107
52.96	794.734
52.98	668.299
53	722.486
53.02	939.232
53.04	866.983
53.06	812.797
53.08	704.424
53.1	957.294
53.12	993.418
53.14	975.356
53.16	722.486
53.18	758.61
53.2	722.486
53.22	812.797
53.24	614.113
53.26	776.672
53.28	794.734
53.3	885.045
53.32	866.983
53.34	722.486
53.36	614.113
53.38	776.672
53.4	848.921
53.42	704.424
53.44	812.797
53.46	614.113
53.48	577.989
53.5	740.548
53.52	885.045
53.54	975.356
53.56	758.61
53.58	668.299
53.6	812.797
53.62	686.362
53.64	758.61
53.66	1083.73
53.68	921.169
53.7	1047.6
53.72	812.797
53.74	650.237
53.76	505.74
53.78	397.367
53.8	722.486
53.82	650.237
53.84	632.175
53.86	722.486
53.88	903.107
53.9	758.61
53.92	921.169
53.94	848.921
53.96	740.548
53.98	885.045
54	704.424
54.02	812.797
54.04	632.175
54.06	740.548
54.08	794.734
54.1	1029.54
54.12	1083.73
54.14	776.672
54.16	866.983
54.18	794.734
54.2	1083.73
54.22	993.418
54.24	722.486
54.26	559.927
54.28	487.678
54.3	740.548
54.32	993.418
54.34	596.051
54.36	686.362
54.38	794.734
54.4	505.74
54.42	632.175
54.44	740.548
54.46	686.362
54.48	632.175
54.5	758.61
54.52	993.418
54.54	758.61
54.56	559.927
54.58	812.797
54.6	776.672
54.62	794.734
54.64	776.672
54.66	776.672
54.68	830.859
54.7	722.486
54.72	686.362
54.74	668.299
54.76	812.797
54.78	722.486
54.8	812.797
54.82	722.486
54.84	758.61
54.86	704.424
54.88	722.486
54.9	866.983
54.92	704.424
54.94	794.734
54.96	776.672
54.98	704.424
55	487.678
55.02	848.921
55.04	758.61
55.06	650.237
55.08	722.486
55.1	758.61
55.12	686.362
55.14	1065.67
55.16	993.418
55.18	758.61
55.2	686.362
55.22	794.734
55.24	596.051
55.26	650.237
55.28	758.61
55.3	758.61
55.32	848.921
55.34	650.237
55.36	903.107
55.38	830.859
55.4	722.486
55.42	1047.6
55.44	830.859
55.46	686.362
55.48	758.61
55.5	722.486
55.52	758.61
55.54	668.299
55.56	650.237
55.58	686.362
55.6	758.61
55.62	668.299
55.64	957.294
55.66	776.672
55.68	668.299
55.7	686.362
55.72	903.107
55.74	668.299
55.76	848.921
55.78	848.921
55.8	812.797
55.82	722.486
55.84	740.548
55.86	650.237
55.88	523.802
55.9	722.486
55.92	758.61
55.94	577.989
55.96	848.921
55.98	577.989
56	559.927
56.02	668.299
56.04	812.797
56.06	704.424
56.08	794.734
56.1	541.864
56.12	704.424
56.14	668.299
56.16	740.548
56.18	939.232
56.2	921.169
56.22	885.045
56.24	668.299
56.26	776.672
56.28	740.548
56.3	523.802
56.32	722.486
56.34	668.299
56.36	559.927
56.38	812.797
56.4	812.797
56.42	559.927
56.44	722.486
56.46	812.797
56.48	487.678
56.5	812.797
56.52	596.051
56.54	650.237
56.56	740.548
56.58	794.734
56.6	722.486
56.62	794.734
56.64	632.175
56.66	650.237
56.68	559.927
56.7	650.237
56.72	812.797
56.74	776.672
56.76	758.61
56.78	794.734
56.8	577.989
56.82	686.362
56.84	632.175
56.86	668.299
56.88	740.548
56.9	758.61
56.92	740.548
56.94	794.734
56.96	776.672
56.98	848.921
57	505.74
57.02	704.424
57.04	830.859
57.06	614.113
57.08	523.802
57.1	632.175
57.12	686.362
57.14	559.927
57.16	632.175
57.18	704.424
57.2	704.424
57.22	776.672
57.24	885.045
57.26	686.362
57.28	740.548
57.3	722.486
57.32	614.113
57.34	650.237
57.36	776.672
57.38	776.672
57.4	523.802
57.42	740.548
57.44	614.113
57.46	541.864
57.48	668.299
57.5	812.797
57.52	523.802
57.54	686.362
57.56	740.548
57.58	758.61
57.6	740.548
57.62	668.299
57.64	830.859
57.66	668.299
57.68	559.927
57.7	668.299
57.72	415.429
57.74	722.486
57.76	686.362
57.78	596.051
57.8	577.989
57.82	722.486
57.84	650.237
57.86	415.429
57.88	505.74
57.9	668.299
57.92	632.175
57.94	830.859
57.96	632.175
57.98	614.113
58	397.367
58.02	650.237
58.04	776.672
58.06	885.045
58.08	794.734
58.1	722.486
58.12	577.989
58.14	794.734
58.16	722.486
58.18	740.548
58.2	632.175
58.22	686.362
58.24	776.672
58.26	848.921
58.28	704.424
58.3	632.175
58.32	650.237
58.34	758.61
58.36	740.548
58.38	541.864
58.4	632.175
58.42	866.983
58.44	541.864
58.46	830.859
58.48	541.864
58.5	451.554
58.52	596.051
58.54	921.169
58.56	614.113
58.58	596.051
58.6	541.864
58.62	686.362
58.64	487.678
58.66	740.548
58.68	541.864
58.7	668.299
58.72	758.61
58.74	740.548
58.76	650.237
58.78	632.175
58.8	686.362
58.82	668.299
58.84	343.181
58.86	487.678
58.88	596.051
58.9	577.989
58.92	812.797
58.94	668.299
58.96	686.362
58.98	650.237
59	523.802
59.02	812.797
59.04	505.74
59.06	596.051
59.08	523.802
59.1	632.175
59.12	614.113
59.14	596.051
59.16	577.989
59.18	632.175
59.2	577.989
59.22	379.305
59.24	614.113
59.26	596.051
59.28	614.113
59.3	686.362
59.32	632.175
59.34	325.119
59.36	614.113
59.38	794.734
59.4	577.989
59.42	433.492
59.44	505.74
59.46	758.61
59.48	758.61
59.5	577.989
59.52	650.237
59.54	686.362
59.56	523.802
59.58	812.797
59.6	704.424
59.62	668.299
59.64	577.989
59.66	559.927
59.68	794.734
59.7	1029.54
59.72	758.61
59.74	668.299
59.76	758.61
59.78	740.548
59.8	848.921
59.82	1029.54
59.84	614.113
59.86	650.237
59.88	740.548
59.9	559.927
59.92	740.548
59.94	668.299
59.96	812.797
59.98	812.797
60	776.672
270.932
59.96	469.616
59.98	379.305
60	361.243
