Sample	 
Comments	 
Filename	C:\Data\西出研\梅木\20211102オペ\LiTFSI24wt_03_0003_0079-1_C_2θ.raw
Goniometer	SmartLab(In-plane)
Attachment	標準Zステージ
Monochromater	None
X	0
Y	0
Z	0.01756
ScanningMode	2Theta
ScanningType	Continuos Scanning
X-Ray	40kV/30mA
入射スリット	0.300mm
受光スリット1	20.000mm
受光スリット2	20.000mm
None	
Start	5
Stop	60
Step	0.02
Speed	21.6746
Theta	0
5	7242.92
5.02	7116.49
5.04	7315.17
5.06	7008.11
5.08	6484.31
5.1	6953.93
5.12	7640.29
5.14	6719.12
5.16	6682.99
5.18	6538.5
5.2	6773.31
5.22	7008.11
5.24	7531.92
5.26	6592.68
5.28	6701.06
5.3	6935.86
5.32	7206.8
5.34	6538.5
5.36	6339.81
5.38	7369.36
5.4	6664.93
5.42	6105.01
5.44	6755.24
5.46	6827.49
5.48	7513.85
5.5	6520.44
5.52	6773.31
5.54	6755.24
5.56	6845.55
5.58	6719.12
5.6	6592.68
5.62	6520.44
5.64	6538.5
5.66	6123.07
5.68	6556.56
5.7	6375.94
5.72	6953.93
5.74	6375.94
5.76	6303.69
5.78	6285.63
5.8	6664.93
5.82	7152.61
5.84	6592.68
5.86	6484.31
5.88	6809.43
5.9	6791.37
5.92	6430.12
5.94	6195.32
5.96	6430.12
5.98	6520.44
6	6105.01
6.02	6357.88
6.04	6068.88
6.06	6935.86
6.08	6520.44
6.1	5978.57
6.12	6267.56
6.14	6321.75
6.16	6321.75
6.18	6412.06
6.2	6394
6.22	6394
6.24	6303.69
6.26	5834.07
6.28	6032.76
6.3	6357.88
6.32	6032.76
6.34	5364.46
6.36	6448.19
6.38	6249.5
6.4	6141.13
6.42	6303.69
6.44	6050.82
6.46	6556.56
6.48	6755.24
6.5	6213.38
6.52	6231.44
6.54	6105.01
6.56	6231.44
6.58	6231.44
6.6	6484.31
6.62	5816.01
6.64	5707.64
6.66	5545.08
6.68	5978.57
6.7	6231.44
6.72	6394
6.74	6159.19
6.76	6701.06
6.78	5942.45
6.8	6520.44
6.82	5906.32
6.84	6086.94
6.86	5960.51
6.88	6249.5
6.9	6285.63
6.92	6032.76
6.94	6231.44
6.96	5490.89
6.98	5960.51
7	6448.19
7.02	5906.32
7.04	5581.2
7.06	6014.69
7.08	6231.44
7.1	5418.64
7.12	6177.25
7.14	6357.88
7.16	6068.88
7.18	5906.32
7.2	6086.94
7.22	5743.76
7.24	5581.2
7.26	5888.26
7.28	6177.25
7.3	5834.07
7.32	5346.4
7.34	6177.25
7.36	6105.01
7.38	5924.38
7.4	6574.62
7.42	6484.31
7.44	5418.64
7.46	5761.82
7.48	5978.57
7.5	6014.69
7.52	6357.88
7.54	5418.64
7.56	6321.75
7.58	5834.07
7.6	6520.44
7.62	5870.2
7.64	6303.69
7.66	5779.89
7.68	6068.88
7.7	5761.82
7.72	5617.33
7.74	5581.2
7.76	5816.01
7.78	5924.38
7.8	5382.52
7.82	5761.82
7.84	6123.07
7.86	5834.07
7.88	6267.56
7.9	5870.2
7.92	5635.39
7.94	6610.75
7.96	5563.14
7.98	5508.95
8	5779.89
8.02	5472.83
8.04	6068.88
8.06	5671.51
8.08	5472.83
8.1	5689.58
8.12	5508.95
8.14	5779.89
8.16	5545.08
8.18	5599.27
8.2	5364.46
8.22	5816.01
8.24	5797.95
8.26	5779.89
8.28	5382.52
8.3	5725.7
8.32	5310.27
8.34	5364.46
8.36	5816.01
8.38	5761.82
8.4	5978.57
8.42	5490.89
8.44	5888.26
8.46	5816.01
8.48	5779.89
8.5	5978.57
8.52	5508.95
8.54	6195.32
8.56	5436.71
8.58	5472.83
8.6	5545.08
8.62	5527.02
8.64	5689.58
8.66	5382.52
8.68	5454.77
8.7	5310.27
8.72	6014.69
8.74	5960.51
8.76	5978.57
8.78	5545.08
8.8	5852.14
8.82	5707.64
8.84	5888.26
8.86	6177.25
8.88	5563.14
8.9	5147.71
8.92	5653.45
8.94	5292.21
8.96	5472.83
8.98	5418.64
9	5238.02
9.02	5256.08
9.04	5581.2
9.06	5545.08
9.08	5508.95
9.1	5346.4
9.12	5816.01
9.14	5418.64
9.16	5870.2
9.18	5599.27
9.2	6123.07
9.22	5671.51
9.24	5743.76
9.26	6213.38
9.28	5617.33
9.3	5274.15
9.32	5617.33
9.34	5671.51
9.36	5743.76
9.38	6123.07
9.4	5346.4
9.42	5508.95
9.44	5689.58
9.46	5599.27
9.48	5924.38
9.5	5653.45
9.52	5581.2
9.54	5418.64
9.56	5021.28
9.58	5201.9
9.6	6159.19
9.62	5689.58
9.64	5508.95
9.66	5725.7
9.68	5201.9
9.7	5960.51
9.72	5545.08
9.74	5093.53
9.76	5508.95
9.78	5725.7
9.8	5527.02
9.82	5400.58
9.84	6339.81
9.86	5779.89
9.88	5490.89
9.9	5816.01
9.92	5906.32
9.94	5111.59
9.96	5201.9
9.98	5978.57
10	5563.14
10.02	5707.64
10.04	4930.97
10.06	5888.26
10.08	5779.89
10.1	5870.2
10.12	5653.45
10.14	5490.89
10.16	6249.5
10.18	5924.38
10.2	5743.76
10.22	5581.2
10.24	5581.2
10.26	5779.89
10.28	6032.76
10.3	5527.02
10.32	5563.14
10.34	5707.64
10.36	6014.69
10.38	5743.76
10.4	5238.02
10.42	5508.95
10.44	5671.51
10.46	5924.38
10.48	5797.95
10.5	5924.38
10.52	5960.51
10.54	6375.94
10.56	5779.89
10.58	6466.25
10.6	6592.68
10.62	5816.01
10.64	5960.51
10.66	6430.12
10.68	6502.37
10.7	7279.05
10.72	7568.04
10.74	7315.17
10.76	7712.54
10.78	7008.11
10.8	6845.55
10.82	7351.29
10.84	6701.06
10.86	6899.74
10.88	6123.07
10.9	5924.38
10.92	5653.45
10.94	5924.38
10.96	5924.38
10.98	6086.94
11	6068.88
11.02	5563.14
11.04	5978.57
11.06	5834.07
11.08	5418.64
11.1	5761.82
11.12	5707.64
11.14	6068.88
11.16	6213.38
11.18	5978.57
11.2	5165.77
11.22	5545.08
11.24	5797.95
11.26	5310.27
11.28	5743.76
11.3	5346.4
11.32	5906.32
11.34	5364.46
11.36	5165.77
11.38	5707.64
11.4	5581.2
11.42	5581.2
11.44	5978.57
11.46	5707.64
11.48	5527.02
11.5	5472.83
11.52	6105.01
11.54	6556.56
11.56	6231.44
11.58	5310.27
11.6	6357.88
11.62	5527.02
11.64	6105.01
11.66	5834.07
11.68	5942.45
11.7	5472.83
11.72	5599.27
11.74	5960.51
11.76	5545.08
11.78	5472.83
11.8	5256.08
11.82	5310.27
11.84	6014.69
11.86	5382.52
11.88	5400.58
11.9	5021.28
11.92	5743.76
11.94	5635.39
11.96	6068.88
11.98	5725.7
12	5924.38
12.02	6412.06
12.04	5256.08
12.06	5743.76
12.08	6123.07
12.1	5978.57
12.12	6123.07
12.14	5635.39
12.16	5743.76
12.18	5671.51
12.2	6159.19
12.22	6105.01
12.24	5653.45
12.26	5490.89
12.28	6032.76
12.3	6177.25
12.32	6086.94
12.34	5382.52
12.36	6032.76
12.38	5165.77
12.4	5779.89
12.42	5888.26
12.44	5508.95
12.46	5906.32
12.48	5039.34
12.5	6032.76
12.52	5797.95
12.54	5472.83
12.56	5689.58
12.58	6159.19
12.6	5816.01
12.62	5906.32
12.64	5942.45
12.66	6267.56
12.68	5671.51
12.7	6032.76
12.72	5725.7
12.74	5924.38
12.76	6032.76
12.78	5400.58
12.8	5346.4
12.82	5545.08
12.84	5653.45
12.86	5599.27
12.88	5508.95
12.9	6032.76
12.92	6141.13
12.94	6177.25
12.96	6105.01
12.98	6935.86
13	6502.37
13.02	5852.14
13.04	5671.51
13.06	5328.33
13.08	5852.14
13.1	5852.14
13.12	5924.38
13.14	5743.76
13.16	5870.2
13.18	5779.89
13.2	5581.2
13.22	5779.89
13.24	6195.32
13.26	5797.95
13.28	6375.94
13.3	6032.76
13.32	6484.31
13.34	6231.44
13.36	6285.63
13.38	6086.94
13.4	6105.01
13.42	5996.63
13.44	6050.82
13.46	5996.63
13.48	5834.07
13.5	5761.82
13.52	5671.51
13.54	5743.76
13.56	6502.37
13.58	6610.75
13.6	6123.07
13.62	5906.32
13.64	5761.82
13.66	5906.32
13.68	5599.27
13.7	6050.82
13.72	5761.82
13.74	5870.2
13.76	6285.63
13.78	6285.63
13.8	5111.59
13.82	5942.45
13.84	5779.89
13.86	5852.14
13.88	6050.82
13.9	5490.89
13.92	5743.76
13.94	6177.25
13.96	5834.07
13.98	6105.01
14	6231.44
14.02	5256.08
14.04	6177.25
14.06	6267.56
14.08	5816.01
14.1	6285.63
14.12	5996.63
14.14	5870.2
14.16	5924.38
14.18	5888.26
14.2	5834.07
14.22	5870.2
14.24	5581.2
14.26	5454.77
14.28	5310.27
14.3	6177.25
14.32	5888.26
14.34	5978.57
14.36	6086.94
14.38	6303.69
14.4	5870.2
14.42	5093.53
14.44	5635.39
14.46	5617.33
14.48	6267.56
14.5	5725.7
14.52	5888.26
14.54	5942.45
14.56	5689.58
14.58	5725.7
14.6	6159.19
14.62	5436.71
14.64	5960.51
14.66	6050.82
14.68	6032.76
14.7	5870.2
14.72	5978.57
14.74	5238.02
14.76	5274.15
14.78	5960.51
14.8	6195.32
14.82	5689.58
14.84	5779.89
14.86	5653.45
14.88	5617.33
14.9	5581.2
14.92	5563.14
14.94	5418.64
14.96	5924.38
14.98	5581.2
15	5779.89
15.02	5201.9
15.04	5238.02
15.06	5454.77
15.08	5364.46
15.1	5779.89
15.12	5671.51
15.14	5292.21
15.16	5292.21
15.18	5508.95
15.2	5725.7
15.22	5201.9
15.24	5581.2
15.26	5545.08
15.28	5816.01
15.3	5743.76
15.32	6303.69
15.34	5527.02
15.36	6123.07
15.38	5689.58
15.4	5924.38
15.42	5490.89
15.44	6213.38
15.46	5779.89
15.48	6321.75
15.5	5617.33
15.52	5490.89
15.54	5201.9
15.56	5400.58
15.58	5256.08
15.6	5581.2
15.62	5978.57
15.64	5147.71
15.66	5635.39
15.68	5797.95
15.7	5725.7
15.72	5418.64
15.74	5364.46
15.76	5834.07
15.78	5256.08
15.8	5996.63
15.82	5870.2
15.84	5761.82
15.86	5418.64
15.88	5527.02
15.9	5129.65
15.92	4732.28
15.94	5617.33
15.96	5310.27
15.98	4714.22
16	5436.71
16.02	5852.14
16.04	4732.28
16.06	5454.77
16.08	5256.08
16.1	5201.9
16.12	5093.53
16.14	5635.39
16.16	5761.82
16.18	5057.4
16.2	4949.03
16.22	5490.89
16.24	5671.51
16.26	5201.9
16.28	5490.89
16.3	5527.02
16.32	5346.4
16.34	5617.33
16.36	4696.16
16.38	5183.84
16.4	5183.84
16.42	5472.83
16.44	5671.51
16.46	5274.15
16.48	5111.59
16.5	4840.66
16.52	5201.9
16.54	5183.84
16.56	5057.4
16.58	5779.89
16.6	5364.46
16.62	5003.21
16.64	5671.51
16.66	5003.21
16.68	5039.34
16.7	5075.46
16.72	5527.02
16.74	4768.41
16.76	5093.53
16.78	5201.9
16.8	4876.78
16.82	4497.47
16.84	5075.46
16.86	5310.27
16.88	5382.52
16.9	5490.89
16.92	5219.96
16.94	5725.7
16.96	5292.21
16.98	5346.4
17	5852.14
17.02	5960.51
17.04	6394
17.06	6357.88
17.08	7441.6
17.1	7279.05
17.12	7477.73
17.14	7911.22
17.16	8218.28
17.18	7676.41
17.2	6791.37
17.22	6755.24
17.24	6610.75
17.26	5581.2
17.28	5129.65
17.3	5599.27
17.32	5147.71
17.34	5725.7
17.36	5508.95
17.38	5472.83
17.4	5201.9
17.42	4894.84
17.44	4768.41
17.46	5527.02
17.48	4750.34
17.5	4840.66
17.52	5039.34
17.54	4768.41
17.56	5346.4
17.58	5021.28
17.6	5617.33
17.62	5183.84
17.64	4569.72
17.66	5057.4
17.68	4605.85
17.7	5003.21
17.72	5274.15
17.74	4822.59
17.76	4732.28
17.78	4949.03
17.8	4894.84
17.82	4515.54
17.84	4985.15
17.86	4967.09
17.88	4894.84
17.9	4894.84
17.92	4894.84
17.94	5021.28
17.96	4533.6
17.98	5436.71
18	4840.66
18.02	4732.28
18.04	5057.4
18.06	4696.16
18.08	5364.46
18.1	5581.2
18.12	4641.97
18.14	4587.79
18.16	4696.16
18.18	4732.28
18.2	5129.65
18.22	5671.51
18.24	5599.27
18.26	6068.88
18.28	5400.58
18.3	6430.12
18.32	6267.56
18.34	5707.64
18.36	6014.69
18.38	5219.96
18.4	5238.02
18.42	5274.15
18.44	5165.77
18.46	4768.41
18.48	4641.97
18.5	5057.4
18.52	4985.15
18.54	5003.21
18.56	4425.23
18.58	4912.9
18.6	4912.9
18.62	5111.59
18.64	4569.72
18.66	4605.85
18.68	5183.84
18.7	4876.78
18.72	5003.21
18.74	4876.78
18.76	4804.53
18.78	4678.1
18.8	4858.72
18.82	4840.66
18.84	4949.03
18.86	4696.16
18.88	5165.77
18.9	5527.02
18.92	5978.57
18.94	5382.52
18.96	5924.38
18.98	6628.81
19	7297.11
19.02	7495.79
19.04	8218.28
19.06	8814.33
19.08	9699.37
19.1	10295.4
19.12	10801.2
19.14	9861.93
19.16	8705.96
19.18	8146.03
19.2	7531.92
19.22	6881.68
19.24	6303.69
19.26	5129.65
19.28	5653.45
19.3	5834.07
19.32	5075.46
19.34	5129.65
19.36	4840.66
19.38	4768.41
19.4	5581.2
19.42	5527.02
19.44	5274.15
19.46	5635.39
19.48	5689.58
19.5	5274.15
19.52	5436.71
19.54	4822.59
19.56	4768.41
19.58	5310.27
19.6	5274.15
19.62	5021.28
19.64	5093.53
19.66	4750.34
19.68	4804.53
19.7	4605.85
19.72	4551.66
19.74	4678.1
19.76	4750.34
19.78	4515.54
19.8	4894.84
19.82	4786.47
19.84	4298.79
19.86	4641.97
19.88	4371.04
19.9	4082.05
19.92	4371.04
19.94	4334.92
19.96	4334.92
19.98	4605.85
20	4118.17
20.02	4479.41
20.04	4678.1
20.06	4443.29
20.08	4804.53
20.1	4623.91
20.12	4750.34
20.14	4660.03
20.16	4371.04
20.18	4641.97
20.2	4515.54
20.22	5183.84
20.24	4587.79
20.26	4244.6
20.28	4840.66
20.3	4262.67
20.32	4660.03
20.34	4082.05
20.36	4352.98
20.38	4533.6
20.4	4389.1
20.42	4407.16
20.44	4533.6
20.46	4605.85
20.48	4678.1
20.5	4750.34
20.52	5003.21
20.54	4389.1
20.56	4280.73
20.58	4009.8
20.6	3973.67
20.62	4732.28
20.64	4876.78
20.66	4063.98
20.68	4298.79
20.7	4352.98
20.72	4533.6
20.74	4407.16
20.76	4443.29
20.78	4515.54
20.8	4226.54
20.82	4389.1
20.84	4533.6
20.86	4786.47
20.88	4316.85
20.9	4316.85
20.92	5003.21
20.94	3919.49
20.96	4009.8
20.98	4262.67
21	4696.16
21.02	4804.53
21.04	4641.97
21.06	4407.16
21.08	4985.15
21.1	4497.47
21.12	4479.41
21.14	5201.9
21.16	4352.98
21.18	4226.54
21.2	4154.29
21.22	4009.8
21.24	4082.05
21.26	4334.92
21.28	4371.04
21.3	4533.6
21.32	4154.29
21.34	4515.54
21.36	4750.34
21.38	4876.78
21.4	4461.35
21.42	4533.6
21.44	4262.67
21.46	4118.17
21.48	4082.05
21.5	4118.17
21.52	4660.03
21.54	4461.35
21.56	4569.72
21.58	4533.6
21.6	4678.1
21.62	5256.08
21.64	4949.03
21.66	4569.72
21.68	5093.53
21.7	4678.1
21.72	4623.91
21.74	4641.97
21.76	3955.61
21.78	4082.05
21.8	4136.23
21.82	3901.42
21.84	4298.79
21.86	3955.61
21.88	4371.04
21.9	4082.05
21.92	4786.47
21.94	4443.29
21.96	3973.67
21.98	4190.42
22	4280.73
22.02	4136.23
22.04	4009.8
22.06	4371.04
22.08	4298.79
22.1	4262.67
22.12	3937.55
22.14	4190.42
22.16	4154.29
22.18	4280.73
22.2	3865.3
22.22	4190.42
22.24	4045.92
22.26	4082.05
22.28	3973.67
22.3	4262.67
22.32	4316.85
22.34	3558.24
22.36	4009.8
22.38	3991.73
22.4	4316.85
22.42	4352.98
22.44	4063.98
22.46	4082.05
22.48	3684.68
22.5	4334.92
22.52	4569.72
22.54	4208.48
22.56	3973.67
22.58	4118.17
22.6	4298.79
22.62	3865.3
22.64	4226.54
22.66	4461.35
22.68	4118.17
22.7	4100.11
22.72	4280.73
22.74	3738.86
22.76	4082.05
22.78	3720.8
22.8	4063.98
22.82	4154.29
22.84	4334.92
22.86	4912.9
22.88	4732.28
22.9	4533.6
22.92	4515.54
22.94	4804.53
22.96	4533.6
22.98	4623.91
23	4912.9
23.02	5039.34
23.04	5147.71
23.06	5545.08
23.08	5545.08
23.1	5147.71
23.12	4930.97
23.14	4822.59
23.16	4352.98
23.18	4876.78
23.2	4208.48
23.22	4443.29
23.24	4371.04
23.26	3883.36
23.28	4154.29
23.3	4027.86
23.32	3756.93
23.34	3594.37
23.36	3901.42
23.38	3991.73
23.4	3973.67
23.42	3377.62
23.44	3829.18
23.46	3829.18
23.48	3467.93
23.5	3558.24
23.52	4244.6
23.54	3774.99
23.56	3630.49
23.58	3756.93
23.6	3865.3
23.62	3919.49
23.64	3576.31
23.66	3937.55
23.68	3811.11
23.7	3901.42
23.72	3359.56
23.74	3630.49
23.76	3829.18
23.78	3973.67
23.8	3811.11
23.82	3829.18
23.84	3648.55
23.86	3666.62
23.88	3774.99
23.9	3504.06
23.92	3558.24
23.94	3431.81
23.96	4154.29
23.98	3774.99
24	3774.99
24.02	3197
24.04	3576.31
24.06	4226.54
24.08	3702.74
24.1	3648.55
24.12	3467.93
24.14	3919.49
24.16	3991.73
24.18	3883.36
24.2	3937.55
24.22	3684.68
24.24	3449.87
24.26	4100.11
24.28	3901.42
24.3	3540.18
24.32	3467.93
24.34	3684.68
24.36	3829.18
24.38	3774.99
24.4	3684.68
24.42	3991.73
24.44	3829.18
24.46	4750.34
24.48	4190.42
24.5	4569.72
24.52	5075.46
24.54	5238.02
24.56	5942.45
24.58	5129.65
24.6	5581.2
24.62	6032.76
24.64	5978.57
24.66	5400.58
24.68	5201.9
24.7	5527.02
24.72	4876.78
24.74	4732.28
24.76	5328.33
24.78	5671.51
24.8	5147.71
24.82	5274.15
24.84	5039.34
24.86	5003.21
24.88	5129.65
24.9	5129.65
24.92	4949.03
24.94	5454.77
24.96	4551.66
24.98	4389.1
25	4063.98
25.02	3955.61
25.04	3576.31
25.06	3576.31
25.08	3774.99
25.1	3431.81
25.12	3738.86
25.14	3684.68
25.16	3359.56
25.18	4027.86
25.2	3106.69
25.22	3269.25
25.24	3305.37
25.26	3811.11
25.28	3612.43
25.3	3485.99
25.32	3576.31
25.34	3016.38
25.36	2998.32
25.38	3197
25.4	3305.37
25.42	3431.81
25.44	3269.25
25.46	3359.56
25.48	3197
25.5	3178.94
25.52	3377.62
25.54	3269.25
25.56	3467.93
25.58	3287.31
25.6	3178.94
25.62	3359.56
25.64	3215.06
25.66	3034.44
25.68	2745.45
25.7	3034.44
25.72	2889.94
25.74	2926.07
25.76	2889.94
25.78	3558.24
25.8	2908.01
25.82	3088.63
25.84	2727.38
25.86	2926.07
25.88	2926.07
25.9	3305.37
25.92	3233.12
25.94	3160.88
25.96	2889.94
25.98	2835.76
26	3269.25
26.02	2871.88
26.04	3034.44
26.06	3197
26.08	3088.63
26.1	3088.63
26.12	2673.2
26.14	2330.02
26.16	2817.69
26.18	3142.81
26.2	2926.07
26.22	2908.01
26.24	2745.45
26.26	3576.31
26.28	2781.57
26.3	2908.01
26.32	3016.38
26.34	2871.88
26.36	2926.07
26.38	3431.81
26.4	3323.44
26.42	2745.45
26.44	2546.76
26.46	2781.57
26.48	2456.45
26.5	2763.51
26.52	2871.88
26.54	3106.69
26.56	3016.38
26.58	2655.14
26.6	2781.57
26.62	2763.51
26.64	2889.94
26.66	3106.69
26.68	3034.44
26.7	2727.38
26.72	2835.76
26.74	2709.32
26.76	2962.19
26.78	2673.2
26.8	2908.01
26.82	2998.32
26.84	3088.63
26.86	2908.01
26.88	2763.51
26.9	2582.89
26.92	2637.07
26.94	2619.01
26.96	2293.89
26.98	3142.81
27	2293.89
27.02	3160.88
27.04	2709.32
27.06	2330.02
27.08	2655.14
27.1	2582.89
27.12	3160.88
27.14	2330.02
27.16	2619.01
27.18	2510.64
27.2	2655.14
27.22	2510.64
27.24	2474.51
27.26	2619.01
27.28	2474.51
27.3	2727.38
27.32	2582.89
27.34	2673.2
27.36	2564.82
27.38	2835.76
27.4	2600.95
27.42	2619.01
27.44	2420.33
27.46	2673.2
27.48	2673.2
27.5	2871.88
27.52	2763.51
27.54	2637.07
27.56	2799.63
27.58	2131.33
27.6	2691.26
27.62	2745.45
27.64	2438.39
27.66	2456.45
27.68	2691.26
27.7	2619.01
27.72	2167.46
27.74	2257.77
27.76	2582.89
27.78	2600.95
27.8	2600.95
27.82	2763.51
27.84	2600.95
27.86	2438.39
27.88	2637.07
27.9	2330.02
27.92	2564.82
27.94	2564.82
27.96	2185.52
27.98	2438.39
28	2600.95
28.02	2330.02
28.04	2257.77
28.06	2311.95
28.08	2366.14
28.1	2673.2
28.12	2546.76
28.14	2528.7
28.16	2348.08
28.18	2348.08
28.2	2564.82
28.22	2311.95
28.24	2745.45
28.26	2257.77
28.28	2619.01
28.3	2366.14
28.32	2438.39
28.34	2600.95
28.36	2582.89
28.38	2275.83
28.4	2022.96
28.42	2474.51
28.44	2438.39
28.46	2384.2
28.48	2275.83
28.5	2673.2
28.52	2600.95
28.54	2709.32
28.56	2474.51
28.58	2384.2
28.6	2456.45
28.62	2438.39
28.64	2546.76
28.66	2420.33
28.68	2637.07
28.7	3052.5
28.72	2926.07
28.74	2998.32
28.76	2745.45
28.78	2871.88
28.8	2889.94
28.82	3142.81
28.84	2908.01
28.86	2835.76
28.88	2691.26
28.9	2781.57
28.92	2582.89
28.94	2366.14
28.96	2420.33
28.98	2908.01
29	2600.95
29.02	2311.95
29.04	2167.46
29.06	2257.77
29.08	2420.33
29.1	2384.2
29.12	2077.15
29.14	1950.71
29.16	2456.45
29.18	2239.71
29.2	1950.71
29.22	2619.01
29.24	2131.33
29.26	2384.2
29.28	2564.82
29.3	2546.76
29.32	2221.64
29.34	2257.77
29.36	1950.71
29.38	2131.33
29.4	2366.14
29.42	2348.08
29.44	2366.14
29.46	2384.2
29.48	2131.33
29.5	1968.77
29.52	2673.2
29.54	2275.83
29.56	2239.71
29.58	1986.84
29.6	1643.66
29.62	2221.64
29.64	1896.53
29.66	2022.96
29.68	2311.95
29.7	2185.52
29.72	2203.58
29.74	2348.08
29.76	2149.4
29.78	2131.33
29.8	1932.65
29.82	2004.9
29.84	2492.58
29.86	2131.33
29.88	2022.96
29.9	2402.27
29.92	2077.15
29.94	1950.71
29.96	1950.71
29.98	1914.59
30	2095.21
30.02	2077.15
30.04	1968.77
30.06	2185.52
30.08	2022.96
30.1	2384.2
30.12	2275.83
30.14	1950.71
30.16	2095.21
30.18	2004.9
30.2	2330.02
30.22	1752.03
30.24	2239.71
30.26	2077.15
30.28	2004.9
30.3	2077.15
30.32	1986.84
30.34	1932.65
30.36	2131.33
30.38	2077.15
30.4	2113.27
30.42	1896.53
30.44	1878.46
30.46	1788.15
30.48	2059.08
30.5	2022.96
30.52	2059.08
30.54	2095.21
30.56	1878.46
30.58	2059.08
30.6	1932.65
30.62	1788.15
30.64	1697.84
30.66	2311.95
30.68	2564.82
30.7	2293.89
30.72	2167.46
30.74	1950.71
30.76	1770.09
30.78	2402.27
30.8	1643.66
30.82	1968.77
30.84	1896.53
30.86	2095.21
30.88	2059.08
30.9	2203.58
30.92	2203.58
30.94	2041.02
30.96	2041.02
30.98	1986.84
31	2059.08
31.02	1842.34
31.04	2041.02
31.06	2113.27
31.08	1697.84
31.1	2131.33
31.12	1643.66
31.14	1968.77
31.16	2004.9
31.18	2059.08
31.2	1896.53
31.22	1896.53
31.24	2149.4
31.26	1896.53
31.28	1752.03
31.3	1986.84
31.32	1860.4
31.34	1788.15
31.36	1824.28
31.38	1806.21
31.4	1860.4
31.42	2311.95
31.44	1896.53
31.46	1914.59
31.48	1914.59
31.5	2167.46
31.52	2041.02
31.54	1896.53
31.56	1589.47
31.58	1697.84
31.6	2022.96
31.62	1842.34
31.64	2203.58
31.66	2131.33
31.68	2077.15
31.7	2077.15
31.72	2004.9
31.74	1950.71
31.76	2041.02
31.78	2366.14
31.8	2004.9
31.82	2474.51
31.84	2366.14
31.86	2402.27
31.88	2402.27
31.9	2474.51
31.92	2113.27
31.94	2293.89
31.96	2041.02
31.98	1860.4
32	2131.33
32.02	1950.71
32.04	1788.15
32.06	1733.97
32.08	1752.03
32.1	1788.15
32.12	1986.84
32.14	2149.4
32.16	2113.27
32.18	1842.34
32.2	1806.21
32.22	1878.46
32.24	2041.02
32.26	1661.72
32.28	1661.72
32.3	1878.46
32.32	1950.71
32.34	1968.77
32.36	2004.9
32.38	1860.4
32.4	2022.96
32.42	1986.84
32.44	1697.84
32.46	1517.22
32.48	2059.08
32.5	1788.15
32.52	2041.02
32.54	1878.46
32.56	1986.84
32.58	1878.46
32.6	1860.4
32.62	1661.72
32.64	1950.71
32.66	1770.09
32.68	2113.27
32.7	1896.53
32.72	1661.72
32.74	1788.15
32.76	2221.64
32.78	1733.97
32.8	1752.03
32.82	1968.77
32.84	2257.77
32.86	1914.59
32.88	2149.4
32.9	2330.02
32.92	2095.21
32.94	2041.02
32.96	2185.52
32.98	1715.9
33	2366.14
33.02	2492.58
33.04	2185.52
33.06	2311.95
33.08	2763.51
33.1	2528.7
33.12	2691.26
33.14	3088.63
33.16	3233.12
33.18	3269.25
33.2	2998.32
33.22	3413.75
33.24	3251.19
33.26	3504.06
33.28	3431.81
33.3	3287.31
33.32	2745.45
33.34	2799.63
33.36	2564.82
33.38	2691.26
33.4	2366.14
33.42	2420.33
33.44	2438.39
33.46	1481.1
33.48	2077.15
33.5	1932.65
33.52	2113.27
33.54	1824.28
33.56	2221.64
33.58	1824.28
33.6	1824.28
33.62	1914.59
33.64	1752.03
33.66	1968.77
33.68	1932.65
33.7	1806.21
33.72	1679.78
33.74	1752.03
33.76	1679.78
33.78	1806.21
33.8	1733.97
33.82	1788.15
33.84	1842.34
33.86	1625.59
33.88	1715.9
33.9	1715.9
33.92	1679.78
33.94	1589.47
33.96	1517.22
33.98	1589.47
34	1878.46
34.02	1625.59
34.04	1860.4
34.06	2348.08
34.08	1914.59
34.1	1806.21
34.12	1968.77
34.14	2004.9
34.16	1806.21
34.18	1752.03
34.2	1715.9
34.22	2004.9
34.24	1752.03
34.26	1950.71
34.28	1535.28
34.3	1607.53
34.32	1643.66
34.34	1517.22
34.36	1752.03
34.38	1408.85
34.4	1589.47
34.42	1264.35
34.44	1463.03
34.46	1643.66
34.48	1770.09
34.5	1607.53
34.52	1806.21
34.54	1607.53
34.56	1625.59
34.58	1824.28
34.6	1571.41
34.62	1878.46
34.64	1625.59
34.66	1842.34
34.68	1733.97
34.7	1770.09
34.72	1589.47
34.74	1643.66
34.76	1878.46
34.78	1878.46
34.8	1968.77
34.82	1679.78
34.84	1788.15
34.86	1770.09
34.88	1589.47
34.9	1517.22
34.92	1752.03
34.94	1517.22
34.96	1914.59
34.98	1842.34
35	1806.21
35.02	1806.21
35.04	1571.41
35.06	1535.28
35.08	1444.97
35.1	1571.41
35.12	1336.6
35.14	1643.66
35.16	1444.97
35.18	1553.34
35.2	1950.71
35.22	1463.03
35.24	1878.46
35.26	1571.41
35.28	1589.47
35.3	1372.72
35.32	1679.78
35.34	1589.47
35.36	1444.97
35.38	1535.28
35.4	1770.09
35.42	1571.41
35.44	1499.16
35.46	1535.28
35.48	1625.59
35.5	1878.46
35.52	1715.9
35.54	1535.28
35.56	1372.72
35.58	1264.35
35.6	1661.72
35.62	1553.34
35.64	1426.91
35.66	1553.34
35.68	1390.79
35.7	1517.22
35.72	1661.72
35.74	1426.91
35.76	1553.34
35.78	1752.03
35.8	1481.1
35.82	1192.1
35.84	1553.34
35.86	1228.23
35.88	1408.85
35.9	1643.66
35.92	1535.28
35.94	1788.15
35.96	1733.97
35.98	1463.03
36	1643.66
36.02	1499.16
36.04	1426.91
36.06	1535.28
36.08	1607.53
36.1	1246.29
36.12	1571.41
36.14	1463.03
36.16	1986.84
36.18	1914.59
36.2	1517.22
36.22	1625.59
36.24	1535.28
36.26	1896.53
36.28	1788.15
36.3	1661.72
36.32	1896.53
36.34	1535.28
36.36	1824.28
36.38	1842.34
36.4	1788.15
36.42	1643.66
36.44	1607.53
36.46	1300.47
36.48	1372.72
36.5	1535.28
36.52	1426.91
36.54	1426.91
36.56	1553.34
36.58	1788.15
36.6	1463.03
36.62	1788.15
36.64	1174.04
36.66	1499.16
36.68	1481.1
36.7	1607.53
36.72	1390.79
36.74	1571.41
36.76	1264.35
36.78	1408.85
36.8	1643.66
36.82	1426.91
36.84	1643.66
36.86	1733.97
36.88	1372.72
36.9	1571.41
36.92	1697.84
36.94	1733.97
36.96	1752.03
36.98	1192.1
37	1770.09
37.02	2022.96
37.04	1788.15
37.06	1426.91
37.08	1589.47
37.1	1986.84
37.12	1679.78
37.14	1372.72
37.16	1499.16
37.18	1408.85
37.2	1824.28
37.22	1571.41
37.24	1643.66
37.26	1589.47
37.28	1318.54
37.3	1535.28
37.32	1426.91
37.34	1517.22
37.36	1571.41
37.38	1661.72
37.4	1517.22
37.42	1463.03
37.44	1318.54
37.46	1372.72
37.48	1336.6
37.5	1444.97
37.52	1571.41
37.54	1390.79
37.56	1318.54
37.58	1752.03
37.6	1535.28
37.62	1499.16
37.64	1517.22
37.66	1643.66
37.68	1390.79
37.7	1571.41
37.72	1661.72
37.74	1607.53
37.76	1715.9
37.78	1481.1
37.8	1788.15
37.82	1661.72
37.84	2004.9
37.86	2041.02
37.88	1842.34
37.9	2239.71
37.92	2239.71
37.94	2077.15
37.96	2330.02
37.98	2004.9
38	2619.01
38.02	2149.4
38.04	2420.33
38.06	2041.02
38.08	2384.2
38.1	2275.83
38.12	2022.96
38.14	2041.02
38.16	1986.84
38.18	1932.65
38.2	1950.71
38.22	1932.65
38.24	2041.02
38.26	1788.15
38.28	1842.34
38.3	1788.15
38.32	1806.21
38.34	1697.84
38.36	1842.34
38.38	1733.97
38.4	1697.84
38.42	1878.46
38.44	1625.59
38.46	1770.09
38.48	1444.97
38.5	1408.85
38.52	1463.03
38.54	1390.79
38.56	1318.54
38.58	1300.47
38.6	1119.85
38.62	1246.29
38.64	1553.34
38.66	1444.97
38.68	1228.23
38.7	1715.9
38.72	1318.54
38.74	1481.1
38.76	1228.23
38.78	1282.41
38.8	1137.92
38.82	1499.16
38.84	1715.9
38.86	1517.22
38.88	1336.6
38.9	1282.41
38.92	1535.28
38.94	1517.22
38.96	1553.34
38.98	1390.79
39	1589.47
39.02	1607.53
39.04	1210.16
39.06	1174.04
39.08	1300.47
39.1	1354.66
39.12	1300.47
39.14	1354.66
39.16	1300.47
39.18	1408.85
39.2	1661.72
39.22	1282.41
39.24	1336.6
39.26	1174.04
39.28	1246.29
39.3	1210.16
39.32	1426.91
39.34	1264.35
39.36	1300.47
39.38	1282.41
39.4	1282.41
39.42	1463.03
39.44	1119.85
39.46	1101.79
39.48	1228.23
39.5	957.294
39.52	993.418
39.54	1246.29
39.56	1499.16
39.58	1083.73
39.6	1210.16
39.62	1282.41
39.64	1246.29
39.66	1192.1
39.68	1282.41
39.7	1155.98
39.72	1499.16
39.74	1300.47
39.76	1300.47
39.78	1372.72
39.8	1408.85
39.82	1300.47
39.84	1336.6
39.86	1354.66
39.88	1264.35
39.9	1318.54
39.92	1354.66
39.94	1300.47
39.96	1210.16
39.98	1101.79
40	1553.34
40.02	1390.79
40.04	1372.72
40.06	1408.85
40.08	1246.29
40.1	1372.72
40.12	1210.16
40.14	1408.85
40.16	1083.73
40.18	1426.91
40.2	1065.67
40.22	1192.1
40.24	1372.72
40.26	1192.1
40.28	1228.23
40.3	1210.16
40.32	1499.16
40.34	1101.79
40.36	1083.73
40.38	1372.72
40.4	1481.1
40.42	1318.54
40.44	1192.1
40.46	1228.23
40.48	1499.16
40.5	1318.54
40.52	1481.1
40.54	1282.41
40.56	1210.16
40.58	1137.92
40.6	1535.28
40.62	975.356
40.64	1246.29
40.66	1390.79
40.68	1770.09
40.7	1408.85
40.72	1210.16
40.74	1553.34
40.76	1336.6
40.78	1246.29
40.8	1228.23
40.82	1571.41
40.84	1300.47
40.86	1697.84
40.88	1354.66
40.9	1553.34
40.92	1535.28
40.94	1517.22
40.96	1300.47
40.98	1517.22
41	1553.34
41.02	1155.98
41.04	1155.98
41.06	1137.92
41.08	1318.54
41.1	1228.23
41.12	1210.16
41.14	1192.1
41.16	1264.35
41.18	1444.97
41.2	1499.16
41.22	1264.35
41.24	1228.23
41.26	939.232
41.28	1390.79
41.3	1192.1
41.32	1372.72
41.34	1228.23
41.36	1372.72
41.38	1065.67
41.4	975.356
41.42	1119.85
41.44	1174.04
41.46	1119.85
41.48	1444.97
41.5	1282.41
41.52	1426.91
41.54	1390.79
41.56	993.418
41.58	1119.85
41.6	1083.73
41.62	1119.85
41.64	1282.41
41.66	1065.67
41.68	1047.6
41.7	1282.41
41.72	1444.97
41.74	1444.97
41.76	1029.54
41.78	1119.85
41.8	1192.1
41.82	1101.79
41.84	1282.41
41.86	1210.16
41.88	1029.54
41.9	1354.66
41.92	1192.1
41.94	1065.67
41.96	1119.85
41.98	1300.47
42	1083.73
42.02	1155.98
42.04	1408.85
42.06	1318.54
42.08	1101.79
42.1	1264.35
42.12	1607.53
42.14	1192.1
42.16	1246.29
42.18	1300.47
42.2	1155.98
42.22	1408.85
42.24	1499.16
42.26	1336.6
42.28	1210.16
42.3	1535.28
42.32	1426.91
42.34	1426.91
42.36	1264.35
42.38	1408.85
42.4	1101.79
42.42	1246.29
42.44	1390.79
42.46	1444.97
42.48	957.294
42.5	1228.23
42.52	1408.85
42.54	1300.47
42.56	1318.54
42.58	1318.54
42.6	1192.1
42.62	1318.54
42.64	1264.35
42.66	1228.23
42.68	1354.66
42.7	1517.22
42.72	1372.72
42.74	1806.21
42.76	1246.29
42.78	1137.92
42.8	1444.97
42.82	1228.23
42.84	1246.29
42.86	1246.29
42.88	1137.92
42.9	1192.1
42.92	1553.34
42.94	1408.85
42.96	1426.91
42.98	903.107
43	1192.1
43.02	1282.41
43.04	1192.1
43.06	1372.72
43.08	1426.91
43.1	1463.03
43.12	1155.98
43.14	1155.98
43.16	1119.85
43.18	1155.98
43.2	1083.73
43.22	1083.73
43.24	957.294
43.26	1137.92
43.28	1210.16
43.3	1047.6
43.32	975.356
43.34	939.232
43.36	1228.23
43.38	1174.04
43.4	1119.85
43.42	1101.79
43.44	1029.54
43.46	1192.1
43.48	1155.98
43.5	1264.35
43.52	1354.66
43.54	1065.67
43.56	1354.66
43.58	1174.04
43.6	1463.03
43.62	1192.1
43.64	1101.79
43.66	1174.04
43.68	1300.47
43.7	1174.04
43.72	1228.23
43.74	1155.98
43.76	1282.41
43.78	1354.66
43.8	1101.79
43.82	1083.73
43.84	1463.03
43.86	1101.79
43.88	1408.85
43.9	1444.97
43.92	1517.22
43.94	1210.16
43.96	1390.79
43.98	1354.66
44	1354.66
44.02	1300.47
44.04	1246.29
44.06	1517.22
44.08	1643.66
44.1	1282.41
44.12	1155.98
44.14	1372.72
44.16	1336.6
44.18	1083.73
44.2	1300.47
44.22	1607.53
44.24	1282.41
44.26	1354.66
44.28	1426.91
44.3	1499.16
44.32	1137.92
44.34	1210.16
44.36	1444.97
44.38	1535.28
44.4	1607.53
44.42	1336.6
44.44	1119.85
44.46	1119.85
44.48	1119.85
44.5	1192.1
44.52	1011.48
44.54	1210.16
44.56	1264.35
44.58	1246.29
44.6	1174.04
44.62	1011.48
44.64	1011.48
44.66	1065.67
44.68	1065.67
44.7	1192.1
44.72	1065.67
44.74	1228.23
44.76	1210.16
44.78	1101.79
44.8	1065.67
44.82	812.797
44.84	939.232
44.86	1101.79
44.88	1083.73
44.9	848.921
44.92	975.356
44.94	903.107
44.96	1137.92
44.98	1372.72
45	1282.41
45.02	1119.85
45.04	1372.72
45.06	1264.35
45.08	1390.79
45.1	921.169
45.12	1029.54
45.14	1155.98
45.16	1029.54
45.18	1083.73
45.2	1210.16
45.22	1210.16
45.24	903.107
45.26	1065.67
45.28	866.983
45.3	1155.98
45.32	1192.1
45.34	1300.47
45.36	1336.6
45.38	1029.54
45.4	1029.54
45.42	1029.54
45.44	1192.1
45.46	1246.29
45.48	1065.67
45.5	1029.54
45.52	1155.98
45.54	1210.16
45.56	1083.73
45.58	957.294
45.6	993.418
45.62	939.232
45.64	1137.92
45.66	1083.73
45.68	1065.67
45.7	1155.98
45.72	1137.92
45.74	921.169
45.76	939.232
45.78	1192.1
45.8	975.356
45.82	1065.67
45.84	1192.1
45.86	1228.23
45.88	1264.35
45.9	975.356
45.92	957.294
45.94	1101.79
45.96	1137.92
45.98	1119.85
46	1011.48
46.02	1011.48
46.04	1119.85
46.06	1047.6
46.08	1065.67
46.1	1083.73
46.12	939.232
46.14	1210.16
46.16	1011.48
46.18	957.294
46.2	1011.48
46.22	993.418
46.24	885.045
46.26	1174.04
46.28	848.921
46.3	794.734
46.32	1174.04
46.34	1083.73
46.36	1029.54
46.38	1011.48
46.4	830.859
46.42	1011.48
46.44	1155.98
46.46	1065.67
46.48	1137.92
46.5	939.232
46.52	1210.16
46.54	939.232
46.56	957.294
46.58	975.356
46.6	1300.47
46.62	1282.41
46.64	1228.23
46.66	1246.29
46.68	1318.54
46.7	1065.67
46.72	1119.85
46.74	939.232
46.76	1065.67
46.78	993.418
46.8	1101.79
46.82	1155.98
46.84	812.797
46.86	1137.92
46.88	921.169
46.9	1011.48
46.92	1065.67
46.94	830.859
46.96	830.859
46.98	1029.54
47	975.356
47.02	1065.67
47.04	993.418
47.06	1228.23
47.08	812.797
47.1	1101.79
47.12	1155.98
47.14	1119.85
47.16	1137.92
47.18	1228.23
47.2	1264.35
47.22	1047.6
47.24	1192.1
47.26	1246.29
47.28	1029.54
47.3	885.045
47.32	1029.54
47.34	903.107
47.36	1047.6
47.38	1011.48
47.4	1155.98
47.42	957.294
47.44	903.107
47.46	1119.85
47.48	1083.73
47.5	794.734
47.52	1228.23
47.54	866.983
47.56	903.107
47.58	1065.67
47.6	957.294
47.62	1011.48
47.64	776.672
47.66	1047.6
47.68	939.232
47.7	1228.23
47.72	1137.92
47.74	939.232
47.76	885.045
47.78	1065.67
47.8	1119.85
47.82	794.734
47.84	921.169
47.86	1029.54
47.88	1047.6
47.9	758.61
47.92	866.983
47.94	885.045
47.96	812.797
47.98	1119.85
48	1192.1
48.02	1065.67
48.04	1174.04
48.06	758.61
48.08	921.169
48.1	993.418
48.12	1029.54
48.14	1011.48
48.16	957.294
48.18	1047.6
48.2	830.859
48.22	993.418
48.24	1047.6
48.26	866.983
48.28	1119.85
48.3	1083.73
48.32	1174.04
48.34	975.356
48.36	1011.48
48.38	1047.6
48.4	1065.67
48.42	993.418
48.44	885.045
48.46	1047.6
48.48	1029.54
48.5	1101.79
48.52	903.107
48.54	1155.98
48.56	1029.54
48.58	758.61
48.6	939.232
48.62	722.486
48.64	632.175
48.66	794.734
48.68	668.299
48.7	1083.73
48.72	1047.6
48.74	1011.48
48.76	993.418
48.78	830.859
48.8	993.418
48.82	939.232
48.84	830.859
48.86	848.921
48.88	1119.85
48.9	975.356
48.92	758.61
48.94	885.045
48.96	939.232
48.98	957.294
49	758.61
49.02	975.356
49.04	993.418
49.06	939.232
49.08	686.362
49.1	885.045
49.12	866.983
49.14	776.672
49.16	776.672
49.18	1083.73
49.2	686.362
49.22	722.486
49.24	1137.92
49.26	758.61
49.28	722.486
49.3	921.169
49.32	921.169
49.34	740.548
49.36	885.045
49.38	957.294
49.4	993.418
49.42	1065.67
49.44	758.61
49.46	740.548
49.48	668.299
49.5	939.232
49.52	812.797
49.54	758.61
49.56	885.045
49.58	885.045
49.6	921.169
49.62	830.859
49.64	1047.6
49.66	794.734
49.68	939.232
49.7	577.989
49.72	1137.92
49.74	758.61
49.76	794.734
49.78	939.232
49.8	921.169
49.82	1029.54
49.84	1011.48
49.86	758.61
49.88	794.734
49.9	1047.6
49.92	830.859
49.94	776.672
49.96	758.61
49.98	1047.6
50	830.859
50.02	830.859
50.04	848.921
50.06	830.859
50.08	848.921
50.1	812.797
50.12	1047.6
50.14	939.232
50.16	758.61
50.18	848.921
50.2	848.921
50.22	885.045
50.24	758.61
50.26	866.983
50.28	794.734
50.3	830.859
50.32	993.418
50.34	776.672
50.36	1029.54
50.38	885.045
50.4	993.418
50.42	1065.67
50.44	885.045
50.46	758.61
50.48	1137.92
50.5	704.424
50.52	975.356
50.54	921.169
50.56	975.356
50.58	885.045
50.6	1029.54
50.62	921.169
50.64	921.169
50.66	830.859
50.68	812.797
50.7	975.356
50.72	758.61
50.74	1137.92
50.76	939.232
50.78	993.418
50.8	939.232
50.82	1264.35
50.84	812.797
50.86	939.232
50.88	939.232
50.9	668.299
50.92	957.294
50.94	957.294
50.96	885.045
50.98	1174.04
51	1029.54
51.02	921.169
51.04	722.486
51.06	776.672
51.08	830.859
51.1	830.859
51.12	794.734
51.14	686.362
51.16	957.294
51.18	993.418
51.2	866.983
51.22	794.734
51.24	794.734
51.26	740.548
51.28	794.734
51.3	812.797
51.32	921.169
51.34	957.294
51.36	1029.54
51.38	848.921
51.4	632.175
51.42	939.232
51.44	957.294
51.46	1065.67
51.48	921.169
51.5	794.734
51.52	866.983
51.54	812.797
51.56	812.797
51.58	794.734
51.6	921.169
51.62	830.859
51.64	939.232
51.66	921.169
51.68	1065.67
51.7	812.797
51.72	794.734
51.74	722.486
51.76	668.299
51.78	939.232
51.8	668.299
51.82	776.672
51.84	848.921
51.86	758.61
51.88	758.61
51.9	921.169
51.92	794.734
51.94	650.237
51.96	704.424
51.98	1065.67
52	686.362
52.02	1029.54
52.04	812.797
52.06	1065.67
52.08	848.921
52.1	740.548
52.12	885.045
52.14	921.169
52.16	975.356
52.18	866.983
52.2	830.859
52.22	668.299
52.24	505.74
52.26	722.486
52.28	722.486
52.3	650.237
52.32	848.921
52.34	921.169
52.36	1029.54
52.38	704.424
52.4	722.486
52.42	704.424
52.44	686.362
52.46	758.61
52.48	686.362
52.5	939.232
52.52	614.113
52.54	812.797
52.56	776.672
52.58	740.548
52.6	704.424
52.62	957.294
52.64	740.548
52.66	794.734
52.68	830.859
52.7	848.921
52.72	559.927
52.74	957.294
52.76	812.797
52.78	794.734
52.8	704.424
52.82	740.548
52.84	740.548
52.86	776.672
52.88	614.113
52.9	632.175
52.92	686.362
52.94	758.61
52.96	848.921
52.98	596.051
53	686.362
53.02	776.672
53.04	794.734
53.06	794.734
53.08	632.175
53.1	776.672
53.12	704.424
53.14	686.362
53.16	866.983
53.18	1011.48
53.2	758.61
53.22	596.051
53.24	794.734
53.26	686.362
53.28	559.927
53.3	866.983
53.32	704.424
53.34	848.921
53.36	794.734
53.38	866.983
53.4	704.424
53.42	866.983
53.44	758.61
53.46	885.045
53.48	614.113
53.5	975.356
53.52	812.797
53.54	740.548
53.56	722.486
53.58	885.045
53.6	812.797
53.62	794.734
53.64	993.418
53.66	812.797
53.68	848.921
53.7	632.175
53.72	668.299
53.74	812.797
53.76	758.61
53.78	632.175
53.8	885.045
53.82	1011.48
53.84	812.797
53.86	939.232
53.88	812.797
53.9	903.107
53.92	830.859
53.94	740.548
53.96	885.045
53.98	921.169
54	993.418
54.02	903.107
54.04	668.299
54.06	812.797
54.08	1065.67
54.1	1011.48
54.12	866.983
54.14	885.045
54.16	614.113
54.18	776.672
54.2	722.486
54.22	830.859
54.24	722.486
54.26	704.424
54.28	704.424
54.3	722.486
54.32	686.362
54.34	650.237
54.36	722.486
54.38	993.418
54.4	740.548
54.42	758.61
54.44	812.797
54.46	668.299
54.48	686.362
54.5	812.797
54.52	523.802
54.54	776.672
54.56	722.486
54.58	704.424
54.6	740.548
54.62	885.045
54.64	415.429
54.66	650.237
54.68	776.672
54.7	505.74
54.72	722.486
54.74	487.678
54.76	776.672
54.78	577.989
54.8	812.797
54.82	903.107
54.84	776.672
54.86	614.113
54.88	848.921
54.9	650.237
54.92	722.486
54.94	632.175
54.96	848.921
54.98	686.362
55	848.921
55.02	812.797
55.04	975.356
55.06	866.983
55.08	740.548
55.1	939.232
55.12	722.486
55.14	1065.67
55.16	993.418
55.18	848.921
55.2	794.734
55.22	812.797
55.24	939.232
55.26	812.797
55.28	614.113
55.3	722.486
55.32	903.107
55.34	722.486
55.36	866.983
55.38	758.61
55.4	686.362
55.42	668.299
55.44	885.045
55.46	939.232
55.48	758.61
55.5	722.486
55.52	885.045
55.54	596.051
55.56	812.797
55.58	830.859
55.6	993.418
55.62	722.486
55.64	758.61
55.66	505.74
55.68	740.548
55.7	903.107
55.72	830.859
55.74	794.734
55.76	722.486
55.78	794.734
55.8	614.113
55.82	957.294
55.84	686.362
55.86	614.113
55.88	740.548
55.9	794.734
55.92	614.113
55.94	505.74
55.96	776.672
55.98	650.237
56	686.362
56.02	776.672
56.04	632.175
56.06	830.859
56.08	758.61
56.1	776.672
56.12	776.672
56.14	614.113
56.16	523.802
56.18	668.299
56.2	740.548
56.22	776.672
56.24	722.486
56.26	758.61
56.28	776.672
56.3	885.045
56.32	686.362
56.34	668.299
56.36	794.734
56.38	776.672
56.4	596.051
56.42	541.864
56.44	794.734
56.46	577.989
56.48	596.051
56.5	830.859
56.52	866.983
56.54	830.859
56.56	758.61
56.58	686.362
56.6	686.362
56.62	686.362
56.64	794.734
56.66	812.797
56.68	668.299
56.7	758.61
56.72	523.802
56.74	722.486
56.76	541.864
56.78	794.734
56.8	686.362
56.82	632.175
56.84	487.678
56.86	830.859
56.88	668.299
56.9	794.734
56.92	830.859
56.94	776.672
56.96	397.367
56.98	704.424
57	541.864
57.02	577.989
57.04	668.299
57.06	505.74
57.08	614.113
57.1	361.243
57.12	686.362
57.14	523.802
57.16	650.237
57.18	740.548
57.2	668.299
57.22	848.921
57.24	776.672
57.26	596.051
57.28	614.113
57.3	487.678
57.32	668.299
57.34	776.672
57.36	596.051
57.38	632.175
57.4	596.051
57.42	722.486
57.44	758.61
57.46	704.424
57.48	632.175
57.5	614.113
57.52	722.486
57.54	614.113
57.56	505.74
57.58	704.424
57.6	596.051
57.62	632.175
57.64	559.927
57.66	577.989
57.68	758.61
57.7	885.045
57.72	614.113
57.74	632.175
57.76	632.175
57.78	614.113
57.8	614.113
57.82	686.362
57.84	740.548
57.86	596.051
57.88	686.362
57.9	722.486
57.92	686.362
57.94	650.237
57.96	794.734
57.98	794.734
58	776.672
58.02	650.237
58.04	361.243
58.06	505.74
58.08	704.424
58.1	469.616
58.12	866.983
58.14	577.989
58.16	469.616
58.18	577.989
58.2	668.299
58.22	722.486
58.24	577.989
58.26	596.051
58.28	740.548
58.3	668.299
58.32	866.983
58.34	686.362
58.36	776.672
58.38	668.299
58.4	686.362
58.42	614.113
58.44	577.989
58.46	577.989
58.48	632.175
58.5	596.051
58.52	650.237
58.54	523.802
58.56	758.61
58.58	577.989
58.6	632.175
58.62	722.486
58.64	758.61
58.66	686.362
58.68	650.237
58.7	596.051
58.72	758.61
58.74	776.672
58.76	668.299
58.78	541.864
58.8	668.299
58.82	614.113
58.84	577.989
58.86	469.616
58.88	559.927
58.9	776.672
58.92	559.927
58.94	614.113
58.96	469.616
58.98	505.74
59	686.362
59.02	632.175
59.04	523.802
59.06	541.864
59.08	397.367
59.1	650.237
59.12	433.492
59.14	559.927
59.16	559.927
59.18	740.548
59.2	740.548
59.22	577.989
59.24	650.237
59.26	704.424
59.28	686.362
59.3	577.989
59.32	939.232
59.34	668.299
59.36	577.989
59.38	830.859
59.4	577.989
59.42	559.927
59.44	541.864
59.46	758.61
59.48	523.802
59.5	523.802
59.52	722.486
59.54	722.486
59.56	758.61
59.58	614.113
59.6	740.548
59.62	577.989
59.64	650.237
59.66	722.486
59.68	722.486
59.7	740.548
59.72	939.232
59.74	650.237
59.76	686.362
59.78	614.113
59.8	776.672
59.82	559.927
59.84	722.486
59.86	885.045
59.88	650.237
59.9	686.362
59.92	740.548
59.94	758.61
59.96	740.548
59.98	523.802
60	794.734
.94	361.243
59.96	379.305
59.98	307.056
60	505.74
