Sample	 
Comments	 
Filename	C:\Data\西出研\梅木\20211102オペ\LiTFSI24wt_04_0004_0099-1_C_2θ.raw
Goniometer	SmartLab(In-plane)
Attachment	標準Zステージ
Monochromater	None
X	0
Y	0
Z	0.01756
ScanningMode	2Theta
ScanningType	Continuos Scanning
X-Ray	40kV/30mA
入射スリット	0.300mm
受光スリット1	20.000mm
受光スリット2	20.000mm
None	
Start	5
Stop	60
Step	0.02
Speed	21.6746
Theta	0
5	7766.72
5.02	6430.12
5.04	7062.3
5.06	6845.55
5.08	7369.36
5.1	7260.98
5.12	6466.25
5.14	7008.11
5.16	6701.06
5.18	6953.93
5.2	7387.42
5.22	7694.47
5.24	6863.62
5.26	7080.36
5.28	6971.99
5.3	6646.87
5.32	6466.25
5.34	6827.49
5.36	6827.49
5.38	6466.25
5.4	6990.05
5.42	7170.67
5.44	6755.24
5.46	7333.23
5.48	6646.87
5.5	6773.31
5.52	6357.88
5.54	6556.56
5.56	6899.74
5.58	6701.06
5.6	6448.19
5.62	6935.86
5.64	6520.44
5.66	6755.24
5.68	6285.63
5.7	7098.42
5.72	6610.75
5.74	6574.62
5.76	6538.5
5.78	6285.63
5.8	6737.18
5.82	6430.12
5.84	6682.99
5.86	6466.25
5.88	6484.31
5.9	6574.62
5.92	6448.19
5.94	6646.87
5.96	6971.99
5.98	6574.62
6	6737.18
6.02	5978.57
6.04	6339.81
6.06	6394
6.08	6249.5
6.1	6231.44
6.12	5960.51
6.14	6737.18
6.16	5924.38
6.18	6159.19
6.2	6592.68
6.22	6448.19
6.24	6375.94
6.26	6159.19
6.28	6159.19
6.3	6339.81
6.32	5888.26
6.34	6123.07
6.36	6484.31
6.38	6014.69
6.4	6285.63
6.42	6195.32
6.44	6249.5
6.46	6719.12
6.48	6141.13
6.5	5906.32
6.52	5816.01
6.54	5779.89
6.56	6556.56
6.58	6430.12
6.6	5599.27
6.62	6159.19
6.64	6032.76
6.66	5924.38
6.68	6123.07
6.7	6195.32
6.72	6068.88
6.74	6177.25
6.76	6032.76
6.78	6068.88
6.8	6303.69
6.82	6068.88
6.84	5888.26
6.86	6086.94
6.88	6014.69
6.9	6448.19
6.92	6032.76
6.94	6556.56
6.96	5906.32
6.98	5996.63
7	6050.82
7.02	5960.51
7.04	5761.82
7.06	6556.56
7.08	6123.07
7.1	6123.07
7.12	5942.45
7.14	6267.56
7.16	6123.07
7.18	6068.88
7.2	6159.19
7.22	5761.82
7.24	5653.45
7.26	6430.12
7.28	6303.69
7.3	5996.63
7.32	5581.2
7.34	6068.88
7.36	6303.69
7.38	6394
7.4	5942.45
7.42	5852.14
7.44	5527.02
7.46	5743.76
7.48	5689.58
7.5	6159.19
7.52	5545.08
7.54	5834.07
7.56	6050.82
7.58	5834.07
7.6	5021.28
7.62	5165.77
7.64	5599.27
7.66	6159.19
7.68	6195.32
7.7	6231.44
7.72	6195.32
7.74	5816.01
7.76	5490.89
7.78	5165.77
7.8	5563.14
7.82	5563.14
7.84	6050.82
7.86	5292.21
7.88	6339.81
7.9	5852.14
7.92	6123.07
7.94	5563.14
7.96	6213.38
7.98	6412.06
8	5671.51
8.02	5870.2
8.04	6520.44
8.06	5219.96
8.08	5834.07
8.1	6592.68
8.12	6213.38
8.14	5003.21
8.16	5779.89
8.18	5527.02
8.2	5563.14
8.22	6032.76
8.24	5942.45
8.26	6086.94
8.28	5743.76
8.3	4804.53
8.32	5816.01
8.34	5454.77
8.36	5545.08
8.38	5725.7
8.4	5238.02
8.42	4822.59
8.44	5147.71
8.46	5201.9
8.48	5490.89
8.5	6339.81
8.52	5436.71
8.54	5653.45
8.56	6394
8.58	5436.71
8.6	5635.39
8.62	6448.19
8.64	5111.59
8.66	5581.2
8.68	5924.38
8.7	6032.76
8.72	5761.82
8.74	5797.95
8.76	5707.64
8.78	6086.94
8.8	5761.82
8.82	5852.14
8.84	5924.38
8.86	5689.58
8.88	5779.89
8.9	5635.39
8.92	5183.84
8.94	5563.14
8.96	5617.33
8.98	5978.57
9	5834.07
9.02	5093.53
9.04	6105.01
9.06	5346.4
9.08	5129.65
9.1	6195.32
9.12	5490.89
9.14	5852.14
9.16	5653.45
9.18	5834.07
9.2	5725.7
9.22	5418.64
9.24	5183.84
9.26	5779.89
9.28	5906.32
9.3	5219.96
9.32	5364.46
9.34	5310.27
9.36	5563.14
9.38	5906.32
9.4	5888.26
9.42	5689.58
9.44	5743.76
9.46	5599.27
9.48	5310.27
9.5	5599.27
9.52	5671.51
9.54	5472.83
9.56	5906.32
9.58	5996.63
9.6	5797.95
9.62	5635.39
9.64	5436.71
9.66	5201.9
9.68	5563.14
9.7	5725.7
9.72	5671.51
9.74	5400.58
9.76	6412.06
9.78	5003.21
9.8	5743.76
9.82	5147.71
9.84	5563.14
9.86	5274.15
9.88	5472.83
9.9	4967.09
9.92	5906.32
9.94	5400.58
9.96	5292.21
9.98	5508.95
10	5147.71
10.02	5563.14
10.04	5256.08
10.06	5490.89
10.08	5238.02
10.1	5563.14
10.12	5816.01
10.14	5364.46
10.16	5725.7
10.18	5328.33
10.2	5490.89
10.22	5978.57
10.24	5725.7
10.26	5581.2
10.28	5454.77
10.3	5563.14
10.32	5454.77
10.34	5870.2
10.36	5527.02
10.38	5581.2
10.4	5563.14
10.42	6159.19
10.44	5797.95
10.46	5888.26
10.48	5960.51
10.5	6141.13
10.52	5924.38
10.54	6357.88
10.56	6285.63
10.58	5870.2
10.6	5797.95
10.62	6159.19
10.64	6267.56
10.66	6556.56
10.68	7206.8
10.7	7857.03
10.72	7333.23
10.74	7658.35
10.76	7297.11
10.78	7206.8
10.8	7098.42
10.82	6448.19
10.84	5996.63
10.86	5924.38
10.88	4660.03
10.9	6105.01
10.92	6231.44
10.94	5454.77
10.96	6014.69
10.98	5400.58
11	5689.58
11.02	5635.39
11.04	5906.32
11.06	5238.02
11.08	5725.7
11.1	5563.14
11.12	5653.45
11.14	5527.02
11.16	5454.77
11.18	5942.45
11.2	5635.39
11.22	5942.45
11.24	5418.64
11.26	5490.89
11.28	5545.08
11.3	6267.56
11.32	5816.01
11.34	6068.88
11.36	6068.88
11.38	6068.88
11.4	5617.33
11.42	5274.15
11.44	6050.82
11.46	5599.27
11.48	5563.14
11.5	5761.82
11.52	5743.76
11.54	6177.25
11.56	4912.9
11.58	6068.88
11.6	5653.45
11.62	5093.53
11.64	5689.58
11.66	5960.51
11.68	5617.33
11.7	5617.33
11.72	5671.51
11.74	6068.88
11.76	5057.4
11.78	5183.84
11.8	5816.01
11.82	6448.19
11.84	6267.56
11.86	5472.83
11.88	5527.02
11.9	5545.08
11.92	5581.2
11.94	5364.46
11.96	5888.26
11.98	5274.15
12	5743.76
12.02	6213.38
12.04	6303.69
12.06	6068.88
12.08	5292.21
12.1	5978.57
12.12	5671.51
12.14	5779.89
12.16	6375.94
12.18	6737.18
12.2	5996.63
12.22	5274.15
12.24	5527.02
12.26	5761.82
12.28	5797.95
12.3	5617.33
12.32	5834.07
12.34	5292.21
12.36	5942.45
12.38	6123.07
12.4	6032.76
12.42	5870.2
12.44	6375.94
12.46	6520.44
12.48	5563.14
12.5	5797.95
12.52	5996.63
12.54	5797.95
12.56	6285.63
12.58	5996.63
12.6	5418.64
12.62	6014.69
12.64	5671.51
12.66	6574.62
12.68	5870.2
12.7	6141.13
12.72	5761.82
12.74	6249.5
12.76	6014.69
12.78	5960.51
12.8	5527.02
12.82	5779.89
12.84	5563.14
12.86	5653.45
12.88	6014.69
12.9	5870.2
12.92	6068.88
12.94	6068.88
12.96	5436.71
12.98	5545.08
13	5545.08
13.02	5870.2
13.04	5960.51
13.06	5472.83
13.08	6177.25
13.1	5743.76
13.12	5563.14
13.14	5870.2
13.16	5978.57
13.18	5472.83
13.2	5129.65
13.22	5870.2
13.24	6357.88
13.26	6303.69
13.28	5418.64
13.3	5671.51
13.32	5906.32
13.34	5978.57
13.36	5508.95
13.38	5816.01
13.4	5563.14
13.42	5671.51
13.44	5563.14
13.46	5292.21
13.48	5274.15
13.5	5635.39
13.52	5942.45
13.54	5689.58
13.56	5852.14
13.58	5599.27
13.6	5274.15
13.62	5870.2
13.64	6267.56
13.66	5653.45
13.68	5779.89
13.7	6357.88
13.72	5707.64
13.74	5545.08
13.76	6177.25
13.78	5563.14
13.8	5779.89
13.82	5816.01
13.84	5797.95
13.86	5689.58
13.88	5888.26
13.9	5689.58
13.92	5545.08
13.94	5834.07
13.96	5996.63
13.98	6177.25
14	5527.02
14.02	5960.51
14.04	5761.82
14.06	5256.08
14.08	5870.2
14.1	5183.84
14.12	5779.89
14.14	5942.45
14.16	5527.02
14.18	5671.51
14.2	6086.94
14.22	5653.45
14.24	4912.9
14.26	5761.82
14.28	5527.02
14.3	5581.2
14.32	6123.07
14.34	6394
14.36	6123.07
14.38	6574.62
14.4	5508.95
14.42	5888.26
14.44	6520.44
14.46	5328.33
14.48	5942.45
14.5	5436.71
14.52	5870.2
14.54	6014.69
14.56	5274.15
14.58	6032.76
14.6	5617.33
14.62	5472.83
14.64	5418.64
14.66	6141.13
14.68	5707.64
14.7	5238.02
14.72	5761.82
14.74	6141.13
14.76	5527.02
14.78	6177.25
14.8	5761.82
14.82	5201.9
14.84	5725.7
14.86	5779.89
14.88	5635.39
14.9	5400.58
14.92	5707.64
14.94	6267.56
14.96	5852.14
14.98	6050.82
15	6303.69
15.02	6249.5
15.04	5129.65
15.06	5996.63
15.08	6105.01
15.1	5093.53
15.12	5852.14
15.14	6177.25
15.16	5671.51
15.18	6123.07
15.2	5003.21
15.22	5400.58
15.24	5472.83
15.26	5400.58
15.28	5328.33
15.3	5292.21
15.32	5545.08
15.34	5201.9
15.36	6032.76
15.38	5382.52
15.4	5924.38
15.42	6177.25
15.44	5490.89
15.46	5960.51
15.48	5779.89
15.5	6159.19
15.52	5183.84
15.54	5328.33
15.56	5400.58
15.58	5292.21
15.6	5653.45
15.62	5310.27
15.64	5743.76
15.66	5310.27
15.68	5472.83
15.7	5942.45
15.72	5039.34
15.74	5508.95
15.76	5238.02
15.78	5689.58
15.8	5310.27
15.82	5418.64
15.84	5093.53
15.86	5545.08
15.88	5183.84
15.9	5599.27
15.92	5165.77
15.94	5238.02
15.96	5057.4
15.98	4750.34
16	5328.33
16.02	4858.72
16.04	5599.27
16.06	5382.52
16.08	5219.96
16.1	5599.27
16.12	5328.33
16.14	5003.21
16.16	5996.63
16.18	5346.4
16.2	5436.71
16.22	5617.33
16.24	5689.58
16.26	5201.9
16.28	5707.64
16.3	4678.1
16.32	6141.13
16.34	5129.65
16.36	5382.52
16.38	5671.51
16.4	5599.27
16.42	5238.02
16.44	5472.83
16.46	4678.1
16.48	5201.9
16.5	5527.02
16.52	5364.46
16.54	5490.89
16.56	5219.96
16.58	4786.47
16.6	5165.77
16.62	5219.96
16.64	5490.89
16.66	4949.03
16.68	5147.71
16.7	5201.9
16.72	5129.65
16.74	4930.97
16.76	5400.58
16.78	5563.14
16.8	5635.39
16.82	4985.15
16.84	5508.95
16.86	5201.9
16.88	4949.03
16.9	5400.58
16.92	5238.02
16.94	5617.33
16.96	5472.83
16.98	5743.76
17	5111.59
17.02	6249.5
17.04	6231.44
17.06	6556.56
17.08	6917.8
17.1	7044.24
17.12	7405.48
17.14	8380.84
17.16	8200.21
17.18	7441.6
17.2	7080.36
17.22	6430.12
17.24	5689.58
17.26	5454.77
17.28	5057.4
17.3	5707.64
17.32	5563.14
17.34	5310.27
17.36	5075.46
17.38	5111.59
17.4	4894.84
17.42	5310.27
17.44	4985.15
17.46	4551.66
17.48	4876.78
17.5	4768.41
17.52	5183.84
17.54	5057.4
17.56	4967.09
17.58	4840.66
17.6	4750.34
17.62	5165.77
17.64	4696.16
17.66	4623.91
17.68	4407.16
17.7	4840.66
17.72	4425.23
17.74	4425.23
17.76	4714.22
17.78	5238.02
17.8	4894.84
17.82	5057.4
17.84	4515.54
17.86	4894.84
17.88	4443.29
17.9	4623.91
17.92	5093.53
17.94	4244.6
17.96	4930.97
17.98	5129.65
18	4912.9
18.02	4912.9
18.04	5111.59
18.06	4804.53
18.08	4479.41
18.1	4750.34
18.12	4949.03
18.14	5364.46
18.16	4930.97
18.18	5653.45
18.2	5490.89
18.22	5328.33
18.24	4876.78
18.26	5635.39
18.28	5725.7
18.3	6249.5
18.32	6068.88
18.34	5490.89
18.36	5707.64
18.38	5328.33
18.4	5454.77
18.42	5057.4
18.44	4804.53
18.46	5256.08
18.48	5165.77
18.5	5454.77
18.52	4533.6
18.54	5093.53
18.56	4660.03
18.58	4334.92
18.6	5093.53
18.62	5075.46
18.64	4858.72
18.66	4768.41
18.68	4623.91
18.7	5508.95
18.72	4732.28
18.74	5075.46
18.76	5129.65
18.78	4949.03
18.8	5563.14
18.82	5292.21
18.84	4623.91
18.86	4967.09
18.88	4949.03
18.9	5761.82
18.92	5635.39
18.94	5996.63
18.96	6664.93
18.98	6881.68
19	7857.03
19.02	8651.77
19.04	10006.4
19.06	10060.6
19.08	9807.75
19.1	10060.6
19.12	9717.43
19.14	9193.63
19.16	8091.84
19.18	6971.99
19.2	6592.68
19.22	6213.38
19.24	5527.02
19.26	5183.84
19.28	5003.21
19.3	5021.28
19.32	5201.9
19.34	5508.95
19.36	5003.21
19.38	5508.95
19.4	5147.71
19.42	5292.21
19.44	5400.58
19.46	5039.34
19.48	4551.66
19.5	4822.59
19.52	5364.46
19.54	5021.28
19.56	5183.84
19.58	4949.03
19.6	5003.21
19.62	4840.66
19.64	4660.03
19.66	4605.85
19.68	4533.6
19.7	4208.48
19.72	4605.85
19.74	4696.16
19.76	4714.22
19.78	4280.73
19.8	4371.04
19.82	4515.54
19.84	4226.54
19.86	5021.28
19.88	4660.03
19.9	4750.34
19.92	5039.34
19.94	4316.85
19.96	4551.66
19.98	4244.6
20	4605.85
20.02	4443.29
20.04	4479.41
20.06	4660.03
20.08	4678.1
20.1	4786.47
20.12	4623.91
20.14	4678.1
20.16	4930.97
20.18	4678.1
20.2	4696.16
20.22	4009.8
20.24	4515.54
20.26	4533.6
20.28	4587.79
20.3	4768.41
20.32	4407.16
20.34	4027.86
20.36	5310.27
20.38	4660.03
20.4	4930.97
20.42	4262.67
20.44	4623.91
20.46	4298.79
20.48	4660.03
20.5	4352.98
20.52	4479.41
20.54	4316.85
20.56	4136.23
20.58	4768.41
20.6	4280.73
20.62	4443.29
20.64	4262.67
20.66	4641.97
20.68	4443.29
20.7	4334.92
20.72	4443.29
20.74	4569.72
20.76	4280.73
20.78	4280.73
20.8	4371.04
20.82	4407.16
20.84	4515.54
20.86	4678.1
20.88	4660.03
20.9	3630.49
20.92	3793.05
20.94	4479.41
20.96	4876.78
20.98	4298.79
21	4208.48
21.02	4804.53
21.04	4334.92
21.06	4262.67
21.08	4371.04
21.1	4136.23
21.12	4045.92
21.14	4768.41
21.16	4894.84
21.18	5075.46
21.2	4045.92
21.22	3702.74
21.24	4316.85
21.26	4190.42
21.28	4334.92
21.3	4172.36
21.32	4371.04
21.34	4244.6
21.36	4605.85
21.38	4515.54
21.4	3991.73
21.42	4190.42
21.44	4623.91
21.46	4208.48
21.48	4551.66
21.5	4443.29
21.52	4316.85
21.54	4641.97
21.56	4407.16
21.58	4822.59
21.6	4804.53
21.62	5274.15
21.64	4985.15
21.66	4804.53
21.68	4009.8
21.7	4858.72
21.72	4533.6
21.74	3883.36
21.76	4226.54
21.78	4696.16
21.8	4497.47
21.82	3991.73
21.84	3991.73
21.86	4497.47
21.88	4605.85
21.9	3811.11
21.92	4136.23
21.94	4009.8
21.96	3919.49
21.98	4479.41
22	4569.72
22.02	4226.54
22.04	4045.92
22.06	4100.11
22.08	4497.47
22.1	4425.23
22.12	4009.8
22.14	4425.23
22.16	3973.67
22.18	4190.42
22.2	4298.79
22.22	4118.17
22.24	4045.92
22.26	3774.99
22.28	3774.99
22.3	4262.67
22.32	4100.11
22.34	4045.92
22.36	4136.23
22.38	4515.54
22.4	4100.11
22.42	3865.3
22.44	3811.11
22.46	4298.79
22.48	4027.86
22.5	3720.8
22.52	3756.93
22.54	4226.54
22.56	4714.22
22.58	4063.98
22.6	3973.67
22.62	4280.73
22.64	4352.98
22.66	4298.79
22.68	3919.49
22.7	3955.61
22.72	3774.99
22.74	3684.68
22.76	4100.11
22.78	3756.93
22.8	4172.36
22.82	4371.04
22.84	4298.79
22.86	4172.36
22.88	4425.23
22.9	4208.48
22.92	4316.85
22.94	5057.4
22.96	4876.78
22.98	5021.28
23	5418.64
23.02	5527.02
23.04	5472.83
23.06	5183.84
23.08	4912.9
23.1	4316.85
23.12	4930.97
23.14	4768.41
23.16	4389.1
23.18	4262.67
23.2	4641.97
23.22	4100.11
23.24	4009.8
23.26	4389.1
23.28	4407.16
23.3	3829.18
23.32	3305.37
23.34	4154.29
23.36	3413.75
23.38	4262.67
23.4	3991.73
23.42	3648.55
23.44	3377.62
23.46	3829.18
23.48	3901.42
23.5	4100.11
23.52	4244.6
23.54	3991.73
23.56	4082.05
23.58	3594.37
23.6	3793.05
23.62	3811.11
23.64	3630.49
23.66	3973.67
23.68	4027.86
23.7	3449.87
23.72	3847.24
23.74	3811.11
23.76	3576.31
23.78	3485.99
23.8	3630.49
23.82	3467.93
23.84	3558.24
23.86	4045.92
23.88	3558.24
23.9	3540.18
23.92	3756.93
23.94	3197
23.96	3612.43
23.98	3251.19
24	3594.37
24.02	3648.55
24.04	3540.18
24.06	3865.3
24.08	3666.62
24.1	3648.55
24.12	3955.61
24.14	3395.68
24.16	3684.68
24.18	3467.93
24.2	3612.43
24.22	3504.06
24.24	3612.43
24.26	3702.74
24.28	3594.37
24.3	3702.74
24.32	4063.98
24.34	3774.99
24.36	3756.93
24.38	3991.73
24.4	3630.49
24.42	4190.42
24.44	4118.17
24.46	4660.03
24.48	4660.03
24.5	4876.78
24.52	5093.53
24.54	5545.08
24.56	5852.14
24.58	6195.32
24.6	5834.07
24.62	5599.27
24.64	5725.7
24.66	5472.83
24.68	5472.83
24.7	5057.4
24.72	5039.34
24.74	5256.08
24.76	5256.08
24.78	5274.15
24.8	5003.21
24.82	5472.83
24.84	5364.46
24.86	5093.53
24.88	5201.9
24.9	4497.47
24.92	4732.28
24.94	4027.86
24.96	4027.86
24.98	3630.49
25	4208.48
25.02	3684.68
25.04	3738.86
25.06	3919.49
25.08	3522.12
25.1	3341.5
25.12	3684.68
25.14	3449.87
25.16	3720.8
25.18	3431.81
25.2	3215.06
25.22	2835.76
25.24	3413.75
25.26	3395.68
25.28	3215.06
25.3	3160.88
25.32	3377.62
25.34	3142.81
25.36	3106.69
25.38	2998.32
25.4	3160.88
25.42	3197
25.44	3088.63
25.46	3124.75
25.48	3449.87
25.5	3088.63
25.52	2980.25
25.54	3178.94
25.56	3142.81
25.58	3576.31
25.6	3702.74
25.62	3034.44
25.64	2889.94
25.66	2962.19
25.68	2835.76
25.7	2781.57
25.72	2673.2
25.74	3233.12
25.76	2908.01
25.78	3088.63
25.8	3124.75
25.82	3377.62
25.84	3016.38
25.86	3395.68
25.88	2998.32
25.9	3016.38
25.92	2673.2
25.94	3323.44
25.96	2926.07
25.98	2980.25
26	2871.88
26.02	2582.89
26.04	3052.5
26.06	2745.45
26.08	2871.88
26.1	2944.13
26.12	2926.07
26.14	2962.19
26.16	2781.57
26.18	3233.12
26.2	2889.94
26.22	2781.57
26.24	2691.26
26.26	2582.89
26.28	2889.94
26.3	2817.69
26.32	2655.14
26.34	2564.82
26.36	3233.12
26.38	2944.13
26.4	2528.7
26.42	2835.76
26.44	2962.19
26.46	2709.32
26.48	2871.88
26.5	3124.75
26.52	2962.19
26.54	2727.38
26.56	2980.25
26.58	2871.88
26.6	2709.32
26.62	2619.01
26.64	2799.63
26.66	2637.07
26.68	2564.82
26.7	2691.26
26.72	3197
26.74	2889.94
26.76	2528.7
26.78	2510.64
26.8	2691.26
26.82	2817.69
26.84	2799.63
26.86	2311.95
26.88	2709.32
26.9	3377.62
26.92	2619.01
26.94	2835.76
26.96	2980.25
26.98	2853.82
27	2673.2
27.02	2871.88
27.04	2763.51
27.06	2637.07
27.08	2637.07
27.1	2492.58
27.12	2871.88
27.14	2600.95
27.16	2492.58
27.18	2637.07
27.2	2709.32
27.22	2709.32
27.24	2709.32
27.26	2853.82
27.28	2293.89
27.3	2745.45
27.32	2528.7
27.34	2655.14
27.36	2203.58
27.38	2673.2
27.4	2709.32
27.42	2510.64
27.44	2564.82
27.46	2691.26
27.48	2600.95
27.5	2546.76
27.52	2619.01
27.54	2348.08
27.56	2853.82
27.58	2709.32
27.6	2492.58
27.62	2456.45
27.64	3016.38
27.66	2582.89
27.68	2763.51
27.7	2384.2
27.72	2727.38
27.74	2492.58
27.76	2330.02
27.78	2673.2
27.8	2438.39
27.82	2835.76
27.84	2528.7
27.86	3142.81
27.88	2709.32
27.9	2059.08
27.92	2185.52
27.94	2474.51
27.96	2330.02
27.98	2456.45
28	2655.14
28.02	2546.76
28.04	2799.63
28.06	2510.64
28.08	2619.01
28.1	2348.08
28.12	2438.39
28.14	2564.82
28.16	2293.89
28.18	2311.95
28.2	2492.58
28.22	2691.26
28.24	2546.76
28.26	2311.95
28.28	2546.76
28.3	2275.83
28.32	2366.14
28.34	2293.89
28.36	2510.64
28.38	2438.39
28.4	2149.4
28.42	2655.14
28.44	2564.82
28.46	2348.08
28.48	2167.46
28.5	2438.39
28.52	2149.4
28.54	2727.38
28.56	2384.2
28.58	2059.08
28.6	2492.58
28.62	2781.57
28.64	2619.01
28.66	2853.82
28.68	2745.45
28.7	2763.51
28.72	2853.82
28.74	3359.56
28.76	2980.25
28.78	2944.13
28.8	3106.69
28.82	2944.13
28.84	2926.07
28.86	2438.39
28.88	2510.64
28.9	2962.19
28.92	2348.08
28.94	2348.08
28.96	2835.76
28.98	2673.2
29	2492.58
29.02	2221.64
29.04	2203.58
29.06	2402.27
29.08	2293.89
29.1	2564.82
29.12	2691.26
29.14	2113.27
29.16	2546.76
29.18	1986.84
29.2	2185.52
29.22	2221.64
29.24	2203.58
29.26	2330.02
29.28	2221.64
29.3	2004.9
29.32	2293.89
29.34	2185.52
29.36	2149.4
29.38	2510.64
29.4	2041.02
29.42	2221.64
29.44	2095.21
29.46	2041.02
29.48	1968.77
29.5	2239.71
29.52	2059.08
29.54	2330.02
29.56	1968.77
29.58	2275.83
29.6	2185.52
29.62	1986.84
29.64	2275.83
29.66	1968.77
29.68	2149.4
29.7	2384.2
29.72	2022.96
29.74	2095.21
29.76	2384.2
29.78	2257.77
29.8	2582.89
29.82	1950.71
29.84	1968.77
29.86	2077.15
29.88	1896.53
29.9	2275.83
29.92	2113.27
29.94	2149.4
29.96	2113.27
29.98	2095.21
30	2095.21
30.02	2131.33
30.04	1806.21
30.06	2113.27
30.08	2113.27
30.1	1968.77
30.12	2311.95
30.14	2311.95
30.16	2059.08
30.18	1842.34
30.2	2077.15
30.22	2149.4
30.24	2203.58
30.26	1806.21
30.28	2004.9
30.3	2113.27
30.32	2095.21
30.34	1499.16
30.36	2149.4
30.38	2239.71
30.4	2077.15
30.42	1770.09
30.44	2059.08
30.46	2022.96
30.48	2041.02
30.5	2022.96
30.52	2293.89
30.54	1824.28
30.56	1932.65
30.58	1788.15
30.6	2330.02
30.62	2113.27
30.64	2348.08
30.66	2004.9
30.68	2077.15
30.7	2330.02
30.72	1914.59
30.74	2275.83
30.76	1752.03
30.78	1788.15
30.8	2293.89
30.82	1932.65
30.84	1986.84
30.86	1878.46
30.88	2077.15
30.9	1806.21
30.92	1968.77
30.94	2041.02
30.96	1950.71
30.98	2077.15
31	1697.84
31.02	2149.4
31.04	1806.21
31.06	1968.77
31.08	1968.77
31.1	1950.71
31.12	1860.4
31.14	1788.15
31.16	1752.03
31.18	2131.33
31.2	1950.71
31.22	2077.15
31.24	1986.84
31.26	1715.9
31.28	1697.84
31.3	2004.9
31.32	1770.09
31.34	2004.9
31.36	1986.84
31.38	2004.9
31.4	2095.21
31.42	1932.65
31.44	2022.96
31.46	1679.78
31.48	1968.77
31.5	1950.71
31.52	1842.34
31.54	2275.83
31.56	1932.65
31.58	1878.46
31.6	2384.2
31.62	2221.64
31.64	1986.84
31.66	2041.02
31.68	2203.58
31.7	1896.53
31.72	2221.64
31.74	2402.27
31.76	2077.15
31.78	2041.02
31.8	2293.89
31.82	2492.58
31.84	2474.51
31.86	2131.33
31.88	2366.14
31.9	2293.89
31.92	2059.08
31.94	1770.09
31.96	1752.03
31.98	2239.71
32	2113.27
32.02	1878.46
32.04	1806.21
32.06	2077.15
32.08	2022.96
32.1	1752.03
32.12	2095.21
32.14	1878.46
32.16	2077.15
32.18	2113.27
32.2	2004.9
32.22	1824.28
32.24	1625.59
32.26	2077.15
32.28	1806.21
32.3	1986.84
32.32	1914.59
32.34	2077.15
32.36	1517.22
32.38	1770.09
32.4	2004.9
32.42	2149.4
32.44	1986.84
32.46	1589.47
32.48	1444.97
32.5	1824.28
32.52	1986.84
32.54	1607.53
32.56	1788.15
32.58	2004.9
32.6	1788.15
32.62	1986.84
32.64	1607.53
32.66	2113.27
32.68	1860.4
32.7	2004.9
32.72	2004.9
32.74	1968.77
32.76	1715.9
32.78	1860.4
32.8	1914.59
32.82	1842.34
32.84	2131.33
32.86	2239.71
32.88	2239.71
32.9	2221.64
32.92	2022.96
32.94	2257.77
32.96	2131.33
32.98	2384.2
33	2817.69
33.02	2474.51
33.04	2871.88
33.06	2673.2
33.08	3106.69
33.1	3305.37
33.12	3522.12
33.14	2980.25
33.16	3142.81
33.18	3287.31
33.2	3215.06
33.22	3106.69
33.24	2781.57
33.26	2853.82
33.28	2781.57
33.3	2492.58
33.32	2438.39
33.34	2582.89
33.36	2275.83
33.38	2004.9
33.4	2077.15
33.42	2167.46
33.44	1842.34
33.46	1968.77
33.48	1788.15
33.5	2077.15
33.52	1499.16
33.54	1625.59
33.56	2041.02
33.58	1788.15
33.6	2095.21
33.62	1788.15
33.64	1607.53
33.66	2203.58
33.68	1679.78
33.7	1752.03
33.72	1878.46
33.74	1752.03
33.76	1607.53
33.78	1625.59
33.8	1625.59
33.82	1824.28
33.84	1896.53
33.86	1517.22
33.88	1968.77
33.9	2077.15
33.92	1697.84
33.94	1715.9
33.96	1824.28
33.98	1372.72
34	2131.33
34.02	1679.78
34.04	2041.02
34.06	1896.53
34.08	1824.28
34.1	1842.34
34.12	2004.9
34.14	1697.84
34.16	1896.53
34.18	1950.71
34.2	1860.4
34.22	1679.78
34.24	1752.03
34.26	1607.53
34.28	1842.34
34.3	1535.28
34.32	1661.72
34.34	1643.66
34.36	1788.15
34.38	1571.41
34.4	1571.41
34.42	1842.34
34.44	1625.59
34.46	1842.34
34.48	1444.97
34.5	1426.91
34.52	2077.15
34.54	1770.09
34.56	1697.84
34.58	1499.16
34.6	1806.21
34.62	1770.09
34.64	1932.65
34.66	1661.72
34.68	2059.08
34.7	1950.71
34.72	1968.77
34.74	2022.96
34.76	1968.77
34.78	1878.46
34.8	1733.97
34.82	1715.9
34.84	1535.28
34.86	1517.22
34.88	1661.72
34.9	1715.9
34.92	1733.97
34.94	1643.66
34.96	1752.03
34.98	1733.97
35	1571.41
35.02	1679.78
35.04	1661.72
35.06	1372.72
35.08	1697.84
35.1	1697.84
35.12	1499.16
35.14	1137.92
35.16	1589.47
35.18	1390.79
35.2	1463.03
35.22	1372.72
35.24	1842.34
35.26	1806.21
35.28	1463.03
35.3	1661.72
35.32	1535.28
35.34	1553.34
35.36	1553.34
35.38	1733.97
35.4	1318.54
35.42	1499.16
35.44	1336.6
35.46	1553.34
35.48	1607.53
35.5	1643.66
35.52	1282.41
35.54	1589.47
35.56	1625.59
35.58	1535.28
35.6	1589.47
35.62	1426.91
35.64	1372.72
35.66	1408.85
35.68	1535.28
35.7	1679.78
35.72	1390.79
35.74	1354.66
35.76	1499.16
35.78	1643.66
35.8	1661.72
35.82	1481.1
35.84	1679.78
35.86	1607.53
35.88	1354.66
35.9	1589.47
35.92	1463.03
35.94	1499.16
35.96	1444.97
35.98	1661.72
36	1444.97
36.02	1408.85
36.04	1372.72
36.06	1426.91
36.08	1770.09
36.1	1499.16
36.12	1589.47
36.14	1806.21
36.16	1752.03
36.18	1878.46
36.2	1733.97
36.22	1517.22
36.24	1336.6
36.26	1752.03
36.28	1752.03
36.3	1589.47
36.32	1733.97
36.34	1607.53
36.36	1571.41
36.38	1390.79
36.4	1643.66
36.42	1697.84
36.44	1553.34
36.46	1444.97
36.48	1444.97
36.5	1589.47
36.52	1517.22
36.54	1426.91
36.56	1715.9
36.58	1589.47
36.6	1661.72
36.62	1553.34
36.64	1842.34
36.66	1408.85
36.68	1499.16
36.7	1318.54
36.72	1481.1
36.74	1481.1
36.76	1318.54
36.78	1535.28
36.8	1408.85
36.82	1643.66
36.84	1282.41
36.86	1607.53
36.88	1625.59
36.9	1553.34
36.92	1806.21
36.94	1806.21
36.96	2059.08
36.98	1715.9
37	1607.53
37.02	1571.41
37.04	1481.1
37.06	1679.78
37.08	1571.41
37.1	1661.72
37.12	1300.47
37.14	1444.97
37.16	1517.22
37.18	1282.41
37.2	1282.41
37.22	1228.23
37.24	1661.72
37.26	1463.03
37.28	1264.35
37.3	1661.72
37.32	1679.78
37.34	1752.03
37.36	1571.41
37.38	1661.72
37.4	1643.66
37.42	1318.54
37.44	1408.85
37.46	1499.16
37.48	1643.66
37.5	1661.72
37.52	1372.72
37.54	1444.97
37.56	1607.53
37.58	1282.41
37.6	1463.03
37.62	1517.22
37.64	1499.16
37.66	1553.34
37.68	1661.72
37.7	1481.1
37.72	1589.47
37.74	1607.53
37.76	1950.71
37.78	2004.9
37.8	1842.34
37.82	2113.27
37.84	2167.46
37.86	2167.46
37.88	2564.82
37.9	2510.64
37.92	2203.58
37.94	2384.2
37.96	2257.77
37.98	2384.2
38	2257.77
38.02	2330.02
38.04	2420.33
38.06	1986.84
38.08	1878.46
38.1	2167.46
38.12	1896.53
38.14	2095.21
38.16	1499.16
38.18	1878.46
38.2	1661.72
38.22	1752.03
38.24	1986.84
38.26	1697.84
38.28	1950.71
38.3	1806.21
38.32	1860.4
38.34	1878.46
38.36	1679.78
38.38	1715.9
38.4	1481.1
38.42	1878.46
38.44	1463.03
38.46	1318.54
38.48	1192.1
38.5	1300.47
38.52	1300.47
38.54	1192.1
38.56	1408.85
38.58	1390.79
38.6	1553.34
38.62	1463.03
38.64	1426.91
38.66	1354.66
38.68	1390.79
38.7	1246.29
38.72	1643.66
38.74	1354.66
38.76	1444.97
38.78	1444.97
38.8	1643.66
38.82	1155.98
38.84	1354.66
38.86	1047.6
38.88	1318.54
38.9	1318.54
38.92	1282.41
38.94	1174.04
38.96	1174.04
38.98	1264.35
39	1282.41
39.02	1101.79
39.04	1246.29
39.06	1119.85
39.08	1571.41
39.1	1192.1
39.12	1119.85
39.14	1155.98
39.16	1264.35
39.18	1083.73
39.2	1408.85
39.22	1282.41
39.24	1174.04
39.26	1499.16
39.28	1697.84
39.3	939.232
39.32	1210.16
39.34	1336.6
39.36	1210.16
39.38	1444.97
39.4	1571.41
39.42	1607.53
39.44	1029.54
39.46	1119.85
39.48	1065.67
39.5	1174.04
39.52	1625.59
39.54	1210.16
39.56	1481.1
39.58	1282.41
39.6	1282.41
39.62	1210.16
39.64	1264.35
39.66	1535.28
39.68	1137.92
39.7	1354.66
39.72	1535.28
39.74	1336.6
39.76	1155.98
39.78	1192.1
39.8	1390.79
39.82	1065.67
39.84	1318.54
39.86	1047.6
39.88	1336.6
39.9	866.983
39.92	1083.73
39.94	1499.16
39.96	1336.6
39.98	1318.54
40	1192.1
40.02	1300.47
40.04	1246.29
40.06	1101.79
40.08	1282.41
40.1	1282.41
40.12	1246.29
40.14	1463.03
40.16	1246.29
40.18	1282.41
40.2	1101.79
40.22	1481.1
40.24	1481.1
40.26	1390.79
40.28	1300.47
40.3	1083.73
40.32	1264.35
40.34	1155.98
40.36	1246.29
40.38	1246.29
40.4	1137.92
40.42	1011.48
40.44	1354.66
40.46	1029.54
40.48	1318.54
40.5	1065.67
40.52	1174.04
40.54	1481.1
40.56	1083.73
40.58	1192.1
40.6	1535.28
40.62	1553.34
40.64	1535.28
40.66	1264.35
40.68	1589.47
40.7	1643.66
40.72	1426.91
40.74	1589.47
40.76	1318.54
40.78	1318.54
40.8	1246.29
40.82	1571.41
40.84	1463.03
40.86	1408.85
40.88	1264.35
40.9	1210.16
40.92	1155.98
40.94	1535.28
40.96	1517.22
40.98	993.418
41	1481.1
41.02	1174.04
41.04	1174.04
41.06	1463.03
41.08	1264.35
41.1	1246.29
41.12	1354.66
41.14	1408.85
41.16	1228.23
41.18	1354.66
41.2	1499.16
41.22	1336.6
41.24	1137.92
41.26	1282.41
41.28	1246.29
41.3	1137.92
41.32	1264.35
41.34	1029.54
41.36	1192.1
41.38	1318.54
41.4	1228.23
41.42	1318.54
41.44	1174.04
41.46	1011.48
41.48	1210.16
41.5	1192.1
41.52	1137.92
41.54	1282.41
41.56	1029.54
41.58	1011.48
41.6	1137.92
41.62	1354.66
41.64	1318.54
41.66	1210.16
41.68	1101.79
41.7	1155.98
41.72	1300.47
41.74	1101.79
41.76	1264.35
41.78	1137.92
41.8	1300.47
41.82	1155.98
41.84	975.356
41.86	1336.6
41.88	1246.29
41.9	1390.79
41.92	1155.98
41.94	1029.54
41.96	1047.6
41.98	1174.04
42	1571.41
42.02	1137.92
42.04	1011.48
42.06	1372.72
42.08	1246.29
42.1	1192.1
42.12	1408.85
42.14	1336.6
42.16	1318.54
42.18	1246.29
42.2	1155.98
42.22	957.294
42.24	1174.04
42.26	1246.29
42.28	1336.6
42.3	1246.29
42.32	1463.03
42.34	1372.72
42.36	1444.97
42.38	1354.66
42.4	1300.47
42.42	1228.23
42.44	1336.6
42.46	1444.97
42.48	1553.34
42.5	1408.85
42.52	1137.92
42.54	885.045
42.56	1336.6
42.58	1137.92
42.6	1426.91
42.62	1210.16
42.64	993.418
42.66	1119.85
42.68	1282.41
42.7	1210.16
42.72	1065.67
42.74	1300.47
42.76	1246.29
42.78	885.045
42.8	1083.73
42.82	1228.23
42.84	1155.98
42.86	1137.92
42.88	1282.41
42.9	1282.41
42.92	1426.91
42.94	1192.1
42.96	993.418
42.98	1246.29
43	1390.79
43.02	1408.85
43.04	1517.22
43.06	1029.54
43.08	1228.23
43.1	1083.73
43.12	1354.66
43.14	1083.73
43.16	1282.41
43.18	1192.1
43.2	975.356
43.22	1137.92
43.24	1246.29
43.26	1101.79
43.28	993.418
43.3	1210.16
43.32	1246.29
43.34	1463.03
43.36	1174.04
43.38	1246.29
43.4	1083.73
43.42	1228.23
43.44	1463.03
43.46	1354.66
43.48	1137.92
43.5	1155.98
43.52	1011.48
43.54	1354.66
43.56	1282.41
43.58	1047.6
43.6	993.418
43.62	1047.6
43.64	1029.54
43.66	1210.16
43.68	1282.41
43.7	1101.79
43.72	1318.54
43.74	1444.97
43.76	1246.29
43.78	1318.54
43.8	1101.79
43.82	1228.23
43.84	1192.1
43.86	1210.16
43.88	1228.23
43.9	1625.59
43.92	1354.66
43.94	1481.1
43.96	1481.1
43.98	1192.1
44	1444.97
44.02	1246.29
44.04	1553.34
44.06	1426.91
44.08	1733.97
44.1	1300.47
44.12	1372.72
44.14	1444.97
44.16	1625.59
44.18	1354.66
44.2	1390.79
44.22	1083.73
44.24	1444.97
44.26	1426.91
44.28	1246.29
44.3	1174.04
44.32	1354.66
44.34	1318.54
44.36	1264.35
44.38	1246.29
44.4	1137.92
44.42	1192.1
44.44	1228.23
44.46	1282.41
44.48	1065.67
44.5	1228.23
44.52	1065.67
44.54	1210.16
44.56	1119.85
44.58	1174.04
44.6	1192.1
44.62	885.045
44.64	1336.6
44.66	1101.79
44.68	1101.79
44.7	1101.79
44.72	1192.1
44.74	939.232
44.76	1101.79
44.78	1047.6
44.8	1228.23
44.82	1047.6
44.84	1029.54
44.86	1228.23
44.88	993.418
44.9	1192.1
44.92	1155.98
44.94	1155.98
44.96	1318.54
44.98	1155.98
45	1174.04
45.02	758.61
45.04	993.418
45.06	1264.35
45.08	1137.92
45.1	1047.6
45.12	1119.85
45.14	1083.73
45.16	903.107
45.18	1137.92
45.2	1137.92
45.22	1174.04
45.24	1246.29
45.26	1228.23
45.28	1137.92
45.3	1101.79
45.32	1192.1
45.34	885.045
45.36	1101.79
45.38	1174.04
45.4	1011.48
45.42	1174.04
45.44	1029.54
45.46	1083.73
45.48	1083.73
45.5	1011.48
45.52	1155.98
45.54	921.169
45.56	921.169
45.58	885.045
45.6	1246.29
45.62	957.294
45.64	1029.54
45.66	1119.85
45.68	921.169
45.7	1264.35
45.72	1065.67
45.74	975.356
45.76	1155.98
45.78	1065.67
45.8	957.294
45.82	848.921
45.84	1264.35
45.86	885.045
45.88	1282.41
45.9	903.107
45.92	957.294
45.94	1192.1
45.96	921.169
45.98	1011.48
46	975.356
46.02	1264.35
46.04	1083.73
46.06	1137.92
46.08	1065.67
46.1	1282.41
46.12	812.797
46.14	1047.6
46.16	1047.6
46.18	1047.6
46.2	1065.67
46.22	1011.48
46.24	794.734
46.26	1065.67
46.28	1029.54
46.3	1065.67
46.32	1137.92
46.34	1282.41
46.36	1228.23
46.38	1047.6
46.4	903.107
46.42	1065.67
46.44	1318.54
46.46	1101.79
46.48	1210.16
46.5	1011.48
46.52	1210.16
46.54	921.169
46.56	1336.6
46.58	1047.6
46.6	993.418
46.62	1228.23
46.64	1390.79
46.66	1426.91
46.68	1155.98
46.7	1174.04
46.72	1137.92
46.74	1174.04
46.76	1101.79
46.78	993.418
46.8	1083.73
46.82	975.356
46.84	1210.16
46.86	866.983
46.88	1029.54
46.9	1228.23
46.92	1083.73
46.94	1011.48
46.96	1119.85
46.98	1174.04
47	794.734
47.02	1029.54
47.04	1137.92
47.06	1011.48
47.08	1065.67
47.1	1192.1
47.12	1228.23
47.14	1210.16
47.16	1101.79
47.18	957.294
47.2	1029.54
47.22	993.418
47.24	1137.92
47.26	903.107
47.28	939.232
47.3	1047.6
47.32	993.418
47.34	957.294
47.36	848.921
47.38	1065.67
47.4	1192.1
47.42	812.797
47.44	1155.98
47.46	975.356
47.48	1155.98
47.5	1119.85
47.52	1047.6
47.54	993.418
47.56	686.362
47.58	1065.67
47.6	848.921
47.62	939.232
47.64	1083.73
47.66	1192.1
47.68	758.61
47.7	1155.98
47.72	1029.54
47.74	1119.85
47.76	1174.04
47.78	1083.73
47.8	939.232
47.82	1083.73
47.84	1318.54
47.86	1047.6
47.88	1083.73
47.9	1137.92
47.92	866.983
47.94	939.232
47.96	957.294
47.98	939.232
48	957.294
48.02	1083.73
48.04	758.61
48.06	866.983
48.08	957.294
48.1	1047.6
48.12	1137.92
48.14	957.294
48.16	1192.1
48.18	1011.48
48.2	975.356
48.22	1083.73
48.24	776.672
48.26	993.418
48.28	993.418
48.3	1011.48
48.32	993.418
48.34	939.232
48.36	812.797
48.38	1101.79
48.4	776.672
48.42	957.294
48.44	921.169
48.46	848.921
48.48	939.232
48.5	993.418
48.52	1101.79
48.54	957.294
48.56	830.859
48.58	885.045
48.6	993.418
48.62	866.983
48.64	812.797
48.66	885.045
48.68	993.418
48.7	1119.85
48.72	939.232
48.74	794.734
48.76	740.548
48.78	1083.73
48.8	921.169
48.82	1174.04
48.84	866.983
48.86	848.921
48.88	1047.6
48.9	812.797
48.92	704.424
48.94	758.61
48.96	993.418
48.98	939.232
49	794.734
49.02	1101.79
49.04	975.356
49.06	1101.79
49.08	848.921
49.1	848.921
49.12	939.232
49.14	921.169
49.16	812.797
49.18	1137.92
49.2	993.418
49.22	903.107
49.24	866.983
49.26	957.294
49.28	885.045
49.3	885.045
49.32	740.548
49.34	939.232
49.36	1029.54
49.38	975.356
49.4	776.672
49.42	830.859
49.44	830.859
49.46	722.486
49.48	794.734
49.5	866.983
49.52	1065.67
49.54	1011.48
49.56	1029.54
49.58	903.107
49.6	740.548
49.62	1065.67
49.64	1065.67
49.66	903.107
49.68	921.169
49.7	939.232
49.72	885.045
49.74	848.921
49.76	704.424
49.78	722.486
49.8	939.232
49.82	758.61
49.84	1011.48
49.86	993.418
49.88	794.734
49.9	1065.67
49.92	866.983
49.94	903.107
49.96	957.294
49.98	614.113
50	740.548
50.02	939.232
50.04	758.61
50.06	740.548
50.08	830.859
50.1	812.797
50.12	939.232
50.14	957.294
50.16	885.045
50.18	848.921
50.2	596.051
50.22	758.61
50.24	758.61
50.26	1083.73
50.28	830.859
50.3	993.418
50.32	975.356
50.34	794.734
50.36	848.921
50.38	830.859
50.4	1065.67
50.42	812.797
50.44	903.107
50.46	957.294
50.48	812.797
50.5	957.294
50.52	1011.48
50.54	1101.79
50.56	1011.48
50.58	921.169
50.6	722.486
50.62	939.232
50.64	848.921
50.66	1083.73
50.68	1119.85
50.7	921.169
50.72	866.983
50.74	632.175
50.76	866.983
50.78	921.169
50.8	993.418
50.82	1083.73
50.84	866.983
50.86	722.486
50.88	614.113
50.9	686.362
50.92	866.983
50.94	1119.85
50.96	975.356
50.98	975.356
51	776.672
51.02	1011.48
51.04	830.859
51.06	776.672
51.08	776.672
51.1	921.169
51.12	812.797
51.14	830.859
51.16	885.045
51.18	740.548
51.2	848.921
51.22	848.921
51.24	866.983
51.26	848.921
51.28	848.921
51.3	776.672
51.32	1065.67
51.34	686.362
51.36	993.418
51.38	939.232
51.4	812.797
51.42	740.548
51.44	686.362
51.46	975.356
51.48	939.232
51.5	830.859
51.52	632.175
51.54	830.859
51.56	957.294
51.58	921.169
51.6	740.548
51.62	848.921
51.64	921.169
51.66	722.486
51.68	794.734
51.7	686.362
51.72	903.107
51.74	614.113
51.76	830.859
51.78	668.299
51.8	577.989
51.82	776.672
51.84	993.418
51.86	866.983
51.88	903.107
51.9	776.672
51.92	722.486
51.94	830.859
51.96	885.045
51.98	903.107
52	1047.6
52.02	975.356
52.04	848.921
52.06	722.486
52.08	794.734
52.1	758.61
52.12	614.113
52.14	794.734
52.16	668.299
52.18	758.61
52.2	993.418
52.22	632.175
52.24	848.921
52.26	722.486
52.28	559.927
52.3	830.859
52.32	903.107
52.34	939.232
52.36	975.356
52.38	686.362
52.4	866.983
52.42	704.424
52.44	758.61
52.46	668.299
52.48	650.237
52.5	596.051
52.52	740.548
52.54	650.237
52.56	577.989
52.58	885.045
52.6	848.921
52.62	776.672
52.64	704.424
52.66	939.232
52.68	957.294
52.7	830.859
52.72	794.734
52.74	704.424
52.76	776.672
52.78	668.299
52.8	885.045
52.82	758.61
52.84	686.362
52.86	885.045
52.88	975.356
52.9	903.107
52.92	794.734
52.94	794.734
52.96	650.237
52.98	776.672
53	596.051
53.02	632.175
53.04	939.232
53.06	812.797
53.08	975.356
53.1	903.107
53.12	722.486
53.14	975.356
53.16	632.175
53.18	650.237
53.2	903.107
53.22	704.424
53.24	957.294
53.26	885.045
53.28	596.051
53.3	866.983
53.32	975.356
53.34	740.548
53.36	740.548
53.38	885.045
53.4	903.107
53.42	812.797
53.44	921.169
53.46	722.486
53.48	740.548
53.5	614.113
53.52	776.672
53.54	776.672
53.56	722.486
53.58	794.734
53.6	505.74
53.62	650.237
53.64	704.424
53.66	830.859
53.68	975.356
53.7	776.672
53.72	921.169
53.74	903.107
53.76	704.424
53.78	1029.54
53.8	866.983
53.82	1083.73
53.84	848.921
53.86	866.983
53.88	921.169
53.9	794.734
53.92	866.983
53.94	885.045
53.96	848.921
53.98	903.107
54	830.859
54.02	866.983
54.04	704.424
54.06	722.486
54.08	722.486
54.1	686.362
54.12	957.294
54.14	794.734
54.16	740.548
54.18	632.175
54.2	812.797
54.22	921.169
54.24	830.859
54.26	704.424
54.28	650.237
54.3	596.051
54.32	704.424
54.34	812.797
54.36	885.045
54.38	686.362
54.4	704.424
54.42	903.107
54.44	776.672
54.46	794.734
54.48	577.989
54.5	848.921
54.52	577.989
54.54	614.113
54.56	577.989
54.58	758.61
54.6	740.548
54.62	740.548
54.64	848.921
54.66	758.61
54.68	794.734
54.7	866.983
54.72	686.362
54.74	650.237
54.76	776.672
54.78	632.175
54.8	596.051
54.82	704.424
54.84	668.299
54.86	686.362
54.88	668.299
54.9	812.797
54.92	668.299
54.94	830.859
54.96	848.921
54.98	903.107
55	848.921
55.02	686.362
55.04	596.051
55.06	686.362
55.08	668.299
55.1	830.859
55.12	722.486
55.14	704.424
55.16	632.175
55.18	523.802
55.2	686.362
55.22	614.113
55.24	830.859
55.26	632.175
55.28	668.299
55.3	866.983
55.32	776.672
55.34	848.921
55.36	812.797
55.38	541.864
55.4	614.113
55.42	776.672
55.44	650.237
55.46	650.237
55.48	812.797
55.5	668.299
55.52	812.797
55.54	668.299
55.56	541.864
55.58	686.362
55.6	830.859
55.62	794.734
55.64	794.734
55.66	559.927
55.68	559.927
55.7	758.61
55.72	686.362
55.74	686.362
55.76	559.927
55.78	722.486
55.8	541.864
55.82	722.486
55.84	740.548
55.86	776.672
55.88	740.548
55.9	794.734
55.92	722.486
55.94	758.61
55.96	758.61
55.98	776.672
56	686.362
56.02	704.424
56.04	794.734
56.06	668.299
56.08	830.859
56.1	794.734
56.12	686.362
56.14	596.051
56.16	848.921
56.18	740.548
56.2	776.672
56.22	668.299
56.24	704.424
56.26	650.237
56.28	722.486
56.3	758.61
56.32	830.859
56.34	830.859
56.36	740.548
56.38	866.983
56.4	794.734
56.42	577.989
56.44	632.175
56.46	650.237
56.48	812.797
56.5	740.548
56.52	614.113
56.54	704.424
56.56	704.424
56.58	722.486
56.6	704.424
56.62	1137.92
56.64	632.175
56.66	505.74
56.68	559.927
56.7	668.299
56.72	704.424
56.74	650.237
56.76	632.175
56.78	830.859
56.8	704.424
56.82	830.859
56.84	596.051
56.86	704.424
56.88	632.175
56.9	830.859
56.92	885.045
56.94	740.548
56.96	686.362
56.98	632.175
57	614.113
57.02	668.299
57.04	596.051
57.06	668.299
57.08	559.927
57.1	758.61
57.12	704.424
57.14	632.175
57.16	668.299
57.18	686.362
57.2	722.486
57.22	758.61
57.24	758.61
57.26	650.237
57.28	632.175
57.3	957.294
57.32	740.548
57.34	885.045
57.36	686.362
57.38	722.486
57.4	830.859
57.42	614.113
57.44	776.672
57.46	848.921
57.48	776.672
57.5	505.74
57.52	668.299
57.54	650.237
57.56	921.169
57.58	614.113
57.6	577.989
57.62	794.734
57.64	668.299
57.66	740.548
57.68	830.859
57.7	740.548
57.72	614.113
57.74	596.051
57.76	686.362
57.78	722.486
57.8	668.299
57.82	722.486
57.84	650.237
57.86	686.362
57.88	559.927
57.9	559.927
57.92	794.734
57.94	614.113
57.96	505.74
57.98	866.983
58	559.927
58.02	487.678
58.04	614.113
58.06	650.237
58.08	650.237
58.1	686.362
58.12	704.424
58.14	704.424
58.16	487.678
58.18	866.983
58.2	740.548
58.22	722.486
58.24	848.921
58.26	632.175
58.28	397.367
58.3	632.175
58.32	487.678
58.34	559.927
58.36	650.237
58.38	614.113
58.4	686.362
58.42	577.989
58.44	794.734
58.46	686.362
58.48	722.486
58.5	559.927
58.52	614.113
58.54	650.237
58.56	776.672
58.58	722.486
58.6	596.051
58.62	596.051
58.64	596.051
58.66	758.61
58.68	650.237
58.7	758.61
58.72	776.672
58.74	885.045
58.76	577.989
58.78	650.237
58.8	939.232
58.82	921.169
58.84	722.486
58.86	559.927
58.88	397.367
58.9	523.802
58.92	686.362
58.94	812.797
58.96	577.989
58.98	596.051
59	541.864
59.02	415.429
59.04	722.486
59.06	740.548
59.08	632.175
59.1	577.989
59.12	704.424
59.14	740.548
59.16	794.734
59.18	668.299
59.2	722.486
59.22	577.989
59.24	541.864
59.26	596.051
59.28	523.802
59.3	830.859
59.32	794.734
59.34	686.362
59.36	523.802
59.38	668.299
59.4	776.672
59.42	848.921
59.44	596.051
59.46	776.672
59.48	650.237
59.5	758.61
59.52	668.299
59.54	668.299
59.56	632.175
59.58	830.859
59.6	758.61
59.62	686.362
59.64	596.051
59.66	794.734
59.68	776.672
59.7	469.616
59.72	632.175
59.74	722.486
59.76	632.175
59.78	559.927
59.8	451.554
59.82	722.486
59.84	866.983
59.86	668.299
59.88	686.362
59.9	668.299
59.92	668.299
59.94	559.927
59.96	577.989
59.98	541.864
60	668.299
	234.808
