Sample	 
Comments	 
Filename	C:\Data\西出研\梅木\20211102オペ\LiFTFSI30wt_04_0004_0099-1_C_2θ.raw
Goniometer	SmartLab(In-plane)
Attachment	標準Zステージ
Monochromater	None
X	0
Y	0
Z	0.01652
ScanningMode	2Theta
ScanningType	Continuos Scanning
X-Ray	40kV/30mA
入射スリット	0.300mm
受光スリット1	20.000mm
受光スリット2	20.000mm
None	
Start	5
Stop	60
Step	0.02
Speed	21.6746
Theta	0
5	5743.76
5.02	5653.45
5.04	5328.33
5.06	5635.39
5.08	5346.4
5.1	5400.58
5.12	5743.76
5.14	5689.58
5.16	5563.14
5.18	5382.52
5.2	5599.27
5.22	6032.76
5.24	5635.39
5.26	5960.51
5.28	5527.02
5.3	5743.76
5.32	5274.15
5.34	5834.07
5.36	5725.7
5.38	5870.2
5.4	6159.19
5.42	5292.21
5.44	5779.89
5.46	5563.14
5.48	5707.64
5.5	5689.58
5.52	5996.63
5.54	5563.14
5.56	5454.77
5.58	5274.15
5.6	5490.89
5.62	5382.52
5.64	5201.9
5.66	5490.89
5.68	5924.38
5.7	5382.52
5.72	5274.15
5.74	5490.89
5.76	5545.08
5.78	5328.33
5.8	5093.53
5.82	5635.39
5.84	5454.77
5.86	5545.08
5.88	4930.97
5.9	5238.02
5.92	5436.71
5.94	5617.33
5.96	5075.46
5.98	5310.27
6	5328.33
6.02	5599.27
6.04	5057.4
6.06	5671.51
6.08	5563.14
6.1	5238.02
6.12	5653.45
6.14	5924.38
6.16	5003.21
6.18	4786.47
6.2	5238.02
6.22	4930.97
6.24	5075.46
6.26	5454.77
6.28	4840.66
6.3	5292.21
6.32	5111.59
6.34	5093.53
6.36	5545.08
6.38	5545.08
6.4	5183.84
6.42	5147.71
6.44	5256.08
6.46	5201.9
6.48	5400.58
6.5	5870.2
6.52	5219.96
6.54	4858.72
6.56	5725.7
6.58	4696.16
6.6	5400.58
6.62	5346.4
6.64	5364.46
6.66	5057.4
6.68	5183.84
6.7	5039.34
6.72	4840.66
6.74	4930.97
6.76	5238.02
6.78	5057.4
6.8	4461.35
6.82	5490.89
6.84	5490.89
6.86	4840.66
6.88	4804.53
6.9	5021.28
6.92	5129.65
6.94	5653.45
6.96	5725.7
6.98	5527.02
7	5238.02
7.02	4605.85
7.04	4858.72
7.06	4750.34
7.08	4352.98
7.1	5129.65
7.12	5039.34
7.14	5039.34
7.16	5256.08
7.18	5129.65
7.2	4714.22
7.22	5165.77
7.24	4949.03
7.26	4967.09
7.28	5021.28
7.3	5057.4
7.32	5129.65
7.34	4876.78
7.36	5238.02
7.38	5274.15
7.4	4985.15
7.42	5346.4
7.44	5093.53
7.46	5274.15
7.48	4876.78
7.5	4912.9
7.52	4840.66
7.54	4551.66
7.56	5635.39
7.58	4804.53
7.6	5563.14
7.62	4822.59
7.64	5093.53
7.66	5129.65
7.68	5039.34
7.7	5057.4
7.72	4678.1
7.74	4949.03
7.76	5292.21
7.78	4876.78
7.8	5003.21
7.82	4985.15
7.84	4660.03
7.86	4822.59
7.88	4858.72
7.9	4876.78
7.92	5057.4
7.94	5527.02
7.96	4696.16
7.98	4569.72
8	4660.03
8.02	5003.21
8.04	4678.1
8.06	4352.98
8.08	4515.54
8.1	4678.1
8.12	5545.08
8.14	4515.54
8.16	4930.97
8.18	5021.28
8.2	4840.66
8.22	4804.53
8.24	4985.15
8.26	4515.54
8.28	4461.35
8.3	4876.78
8.32	4930.97
8.34	5039.34
8.36	4587.79
8.38	4551.66
8.4	5165.77
8.42	5129.65
8.44	4714.22
8.46	4641.97
8.48	4443.29
8.5	4732.28
8.52	4641.97
8.54	4840.66
8.56	4678.1
8.58	4930.97
8.6	5219.96
8.62	5274.15
8.64	4660.03
8.66	4551.66
8.68	5147.71
8.7	4768.41
8.72	5147.71
8.74	4714.22
8.76	4912.9
8.78	4768.41
8.8	4930.97
8.82	5238.02
8.84	4804.53
8.86	5021.28
8.88	4949.03
8.9	4804.53
8.92	4461.35
8.94	4605.85
8.96	4786.47
8.98	4732.28
9	4967.09
9.02	4894.84
9.04	4858.72
9.06	4479.41
9.08	4569.72
9.1	5201.9
9.12	5003.21
9.14	4425.23
9.16	4858.72
9.18	4641.97
9.2	4551.66
9.22	4641.97
9.24	4352.98
9.26	4732.28
9.28	4587.79
9.3	4876.78
9.32	4894.84
9.34	4786.47
9.36	4876.78
9.38	4696.16
9.4	4750.34
9.42	4623.91
9.44	4515.54
9.46	4768.41
9.48	4732.28
9.5	4660.03
9.52	4732.28
9.54	4714.22
9.56	4840.66
9.58	4750.34
9.6	4515.54
9.62	4858.72
9.64	4461.35
9.66	4497.47
9.68	4641.97
9.7	4533.6
9.72	4985.15
9.74	4732.28
9.76	4660.03
9.78	4334.92
9.8	4045.92
9.82	4678.1
9.84	4840.66
9.86	4605.85
9.88	4190.42
9.9	4334.92
9.92	3793.05
9.94	4678.1
9.96	4352.98
9.98	4515.54
10	4172.36
10.02	4894.84
10.04	4208.48
10.06	4334.92
10.08	4660.03
10.1	4822.59
10.12	4660.03
10.14	4280.73
10.16	4479.41
10.18	4190.42
10.2	4696.16
10.22	4641.97
10.24	4551.66
10.26	4443.29
10.28	4244.6
10.3	4641.97
10.32	4678.1
10.34	4371.04
10.36	4334.92
10.38	4768.41
10.4	4750.34
10.42	4732.28
10.44	4714.22
10.46	4623.91
10.48	4226.54
10.5	3756.93
10.52	4660.03
10.54	4732.28
10.56	4316.85
10.58	4479.41
10.6	4750.34
10.62	4280.73
10.64	4316.85
10.66	4732.28
10.68	4750.34
10.7	4732.28
10.72	4407.16
10.74	4136.23
10.76	4443.29
10.78	4949.03
10.8	4316.85
10.82	4118.17
10.84	4334.92
10.86	4136.23
10.88	4172.36
10.9	4660.03
10.92	4208.48
10.94	4551.66
10.96	4714.22
10.98	4515.54
11	4154.29
11.02	4334.92
11.04	4660.03
11.06	5039.34
11.08	4551.66
11.1	4750.34
11.12	4587.79
11.14	4678.1
11.16	4858.72
11.18	4045.92
11.2	4840.66
11.22	4461.35
11.24	4660.03
11.26	4461.35
11.28	4786.47
11.3	3684.68
11.32	4244.6
11.34	4623.91
11.36	4497.47
11.38	4371.04
11.4	4244.6
11.42	4894.84
11.44	4190.42
11.46	4714.22
11.48	5039.34
11.5	4641.97
11.52	4551.66
11.54	4190.42
11.56	4298.79
11.58	4985.15
11.6	3901.42
11.62	4515.54
11.64	4190.42
11.66	4461.35
11.68	4641.97
11.7	4497.47
11.72	4930.97
11.74	4154.29
11.76	4786.47
11.78	4696.16
11.8	4425.23
11.82	4461.35
11.84	5382.52
11.86	4822.59
11.88	4533.6
11.9	4497.47
11.92	4587.79
11.94	4768.41
11.96	4533.6
11.98	4967.09
12	4804.53
12.02	3756.93
12.04	4515.54
12.06	4732.28
12.08	4551.66
12.1	4714.22
12.12	4334.92
12.14	4605.85
12.16	4316.85
12.18	4262.67
12.2	4533.6
12.22	4696.16
12.24	4497.47
12.26	4334.92
12.28	4244.6
12.3	5328.33
12.32	4714.22
12.34	4334.92
12.36	5021.28
12.38	4461.35
12.4	4732.28
12.42	4623.91
12.44	4334.92
12.46	4605.85
12.48	4768.41
12.5	4226.54
12.52	4587.79
12.54	5003.21
12.56	4389.1
12.58	4497.47
12.6	4118.17
12.62	4389.1
12.64	4876.78
12.66	4750.34
12.68	4172.36
12.7	4949.03
12.72	4226.54
12.74	4389.1
12.76	4732.28
12.78	4515.54
12.8	4605.85
12.82	4226.54
12.84	4569.72
12.86	4768.41
12.88	4371.04
12.9	4533.6
12.92	4479.41
12.94	4443.29
12.96	4714.22
12.98	4569.72
13	4876.78
13.02	4605.85
13.04	4714.22
13.06	4605.85
13.08	4696.16
13.1	4678.1
13.12	4894.84
13.14	5003.21
13.16	4208.48
13.18	4407.16
13.2	4678.1
13.22	4407.16
13.24	4822.59
13.26	4443.29
13.28	4425.23
13.3	4949.03
13.32	4316.85
13.34	4696.16
13.36	4641.97
13.38	4316.85
13.4	4172.36
13.42	4352.98
13.44	4407.16
13.46	4768.41
13.48	4497.47
13.5	4262.67
13.52	4262.67
13.54	4334.92
13.56	4100.11
13.58	5111.59
13.6	4334.92
13.62	4371.04
13.64	4461.35
13.66	4967.09
13.68	4262.67
13.7	4316.85
13.72	4136.23
13.74	4100.11
13.76	4551.66
13.78	4009.8
13.8	4443.29
13.82	4461.35
13.84	4587.79
13.86	5328.33
13.88	4443.29
13.9	4696.16
13.92	4551.66
13.94	4334.92
13.96	4316.85
13.98	4208.48
14	4660.03
14.02	4334.92
14.04	4389.1
14.06	4407.16
14.08	4660.03
14.1	4280.73
14.12	4732.28
14.14	4443.29
14.16	3811.11
14.18	4461.35
14.2	4352.98
14.22	4009.8
14.24	4118.17
14.26	4732.28
14.28	4605.85
14.3	4569.72
14.32	4443.29
14.34	4732.28
14.36	4389.1
14.38	4298.79
14.4	4027.86
14.42	4533.6
14.44	3991.73
14.46	3955.61
14.48	4208.48
14.5	4461.35
14.52	4443.29
14.54	4497.47
14.56	4443.29
14.58	4660.03
14.6	4154.29
14.62	4352.98
14.64	4009.8
14.66	4605.85
14.68	4515.54
14.7	4371.04
14.72	4732.28
14.74	4082.05
14.76	4063.98
14.78	4009.8
14.8	4262.67
14.82	4244.6
14.84	4750.34
14.86	4136.23
14.88	4027.86
14.9	4334.92
14.92	4244.6
14.94	4461.35
14.96	4118.17
14.98	4497.47
15	4840.66
15.02	4262.67
15.04	4280.73
15.06	4551.66
15.08	4298.79
15.1	3865.3
15.12	4226.54
15.14	4876.78
15.16	4371.04
15.18	4082.05
15.2	4696.16
15.22	4280.73
15.24	4244.6
15.26	3955.61
15.28	4605.85
15.3	4641.97
15.32	4587.79
15.34	4497.47
15.36	4425.23
15.38	4714.22
15.4	4352.98
15.42	4967.09
15.44	4389.1
15.46	4407.16
15.48	4118.17
15.5	4208.48
15.52	4371.04
15.54	4425.23
15.56	4425.23
15.58	4660.03
15.6	4352.98
15.62	4316.85
15.64	4443.29
15.66	3973.67
15.68	4533.6
15.7	4262.67
15.72	4027.86
15.74	4009.8
15.76	4425.23
15.78	4244.6
15.8	4118.17
15.82	3829.18
15.84	4118.17
15.86	4949.03
15.88	4443.29
15.9	4009.8
15.92	4967.09
15.94	4858.72
15.96	4154.29
15.98	4352.98
16	4407.16
16.02	3793.05
16.04	4280.73
16.06	4298.79
16.08	4533.6
16.1	3865.3
16.12	4154.29
16.14	4045.92
16.16	4027.86
16.18	4768.41
16.2	5364.46
16.22	3648.55
16.24	4136.23
16.26	4244.6
16.28	4605.85
16.3	4262.67
16.32	4768.41
16.34	4136.23
16.36	4208.48
16.38	4172.36
16.4	4334.92
16.42	4515.54
16.44	4407.16
16.46	4190.42
16.48	4154.29
16.5	4678.1
16.52	4352.98
16.54	4569.72
16.56	4678.1
16.58	4443.29
16.6	4497.47
16.62	4641.97
16.64	4045.92
16.66	4497.47
16.68	4371.04
16.7	4443.29
16.72	4425.23
16.74	4262.67
16.76	4804.53
16.78	4425.23
16.8	3991.73
16.82	4352.98
16.84	4136.23
16.86	4280.73
16.88	4641.97
16.9	4280.73
16.92	4515.54
16.94	4316.85
16.96	4641.97
16.98	4352.98
17	4316.85
17.02	4461.35
17.04	4298.79
17.06	4334.92
17.08	4660.03
17.1	5057.4
17.12	4822.59
17.14	4930.97
17.16	4985.15
17.18	5563.14
17.2	5689.58
17.22	5599.27
17.24	5219.96
17.26	5147.71
17.28	4678.1
17.3	4461.35
17.32	4244.6
17.34	4208.48
17.36	4136.23
17.38	4569.72
17.4	4136.23
17.42	4262.67
17.44	4190.42
17.46	4515.54
17.48	4389.1
17.5	5003.21
17.52	4262.67
17.54	4298.79
17.56	4912.9
17.58	4298.79
17.6	3811.11
17.62	4334.92
17.64	4894.84
17.66	4461.35
17.68	4605.85
17.7	4226.54
17.72	4190.42
17.74	4244.6
17.76	4533.6
17.78	4172.36
17.8	4082.05
17.82	4497.47
17.84	4100.11
17.86	4389.1
17.88	3973.67
17.9	4389.1
17.92	3991.73
17.94	4732.28
17.96	4136.23
17.98	4009.8
18	3847.24
18.02	4334.92
18.04	4226.54
18.06	4533.6
18.08	4660.03
18.1	4822.59
18.12	5147.71
18.14	5581.2
18.16	5292.21
18.18	5111.59
18.2	5238.02
18.22	4949.03
18.24	5147.71
18.26	4804.53
18.28	4678.1
18.3	4443.29
18.32	4515.54
18.34	4389.1
18.36	4660.03
18.38	4930.97
18.4	4786.47
18.42	5183.84
18.44	5310.27
18.46	4985.15
18.48	4443.29
18.5	4804.53
18.52	4371.04
18.54	4605.85
18.56	4136.23
18.58	4316.85
18.6	4226.54
18.62	4100.11
18.64	3756.93
18.66	3955.61
18.68	4280.73
18.7	4352.98
18.72	4118.17
18.74	4407.16
18.76	4822.59
18.78	3847.24
18.8	4172.36
18.82	4696.16
18.84	4334.92
18.86	4714.22
18.88	4678.1
18.9	4587.79
18.92	4949.03
18.94	4949.03
18.96	4949.03
18.98	4443.29
19	4912.9
19.02	4280.73
19.04	4407.16
19.06	4533.6
19.08	4623.91
19.1	4334.92
19.12	5039.34
19.14	5075.46
19.16	5111.59
19.18	5039.34
19.2	5364.46
19.22	5057.4
19.24	5021.28
19.26	5219.96
19.28	5093.53
19.3	4641.97
19.32	4280.73
19.34	4461.35
19.36	4497.47
19.38	4750.34
19.4	4714.22
19.42	4298.79
19.44	4208.48
19.46	4280.73
19.48	4569.72
19.5	4389.1
19.52	3720.8
19.54	4569.72
19.56	4533.6
19.58	4280.73
19.6	4461.35
19.62	4352.98
19.64	3937.55
19.66	4316.85
19.68	3504.06
19.7	4208.48
19.72	4136.23
19.74	3865.3
19.76	4045.92
19.78	3756.93
19.8	3829.18
19.82	4082.05
19.84	4045.92
19.86	4154.29
19.88	3847.24
19.9	4136.23
19.92	3395.68
19.94	3829.18
19.96	3413.75
19.98	3811.11
20	3648.55
20.02	3774.99
20.04	3883.36
20.06	3919.49
20.08	3829.18
20.1	3901.42
20.12	3702.74
20.14	4100.11
20.16	3377.62
20.18	3793.05
20.2	4208.48
20.22	3666.62
20.24	3901.42
20.26	3630.49
20.28	3558.24
20.3	3720.8
20.32	3215.06
20.34	4045.92
20.36	3431.81
20.38	3594.37
20.4	3793.05
20.42	3847.24
20.44	3865.3
20.46	3720.8
20.48	3341.5
20.5	4045.92
20.52	3666.62
20.54	3648.55
20.56	3612.43
20.58	3540.18
20.6	3305.37
20.62	3793.05
20.64	3756.93
20.66	4082.05
20.68	4226.54
20.7	3720.8
20.72	3738.86
20.74	4009.8
20.76	3847.24
20.78	3937.55
20.8	3720.8
20.82	3702.74
20.84	3811.11
20.86	3702.74
20.88	4154.29
20.9	4063.98
20.92	3937.55
20.94	3594.37
20.96	3847.24
20.98	3558.24
21	3431.81
21.02	4118.17
21.04	3847.24
21.06	3756.93
21.08	3540.18
21.1	3323.44
21.12	3684.68
21.14	3774.99
21.16	3919.49
21.18	3756.93
21.2	3504.06
21.22	3774.99
21.24	3738.86
21.26	4118.17
21.28	4045.92
21.3	3522.12
21.32	3991.73
21.34	3666.62
21.36	3431.81
21.38	3431.81
21.4	3829.18
21.42	4208.48
21.44	3594.37
21.46	3449.87
21.48	3504.06
21.5	3774.99
21.52	3666.62
21.54	3269.25
21.56	3612.43
21.58	3630.49
21.6	3630.49
21.62	3630.49
21.64	3648.55
21.66	3774.99
21.68	3124.75
21.7	3847.24
21.72	4100.11
21.74	3485.99
21.76	3847.24
21.78	3955.61
21.8	3720.8
21.82	4316.85
21.84	3666.62
21.86	3504.06
21.88	3377.62
21.9	3991.73
21.92	3594.37
21.94	3449.87
21.96	3485.99
21.98	3305.37
22	3504.06
22.02	3269.25
22.04	3287.31
22.06	3395.68
22.08	3251.19
22.1	3269.25
22.12	3756.93
22.14	3919.49
22.16	3251.19
22.18	3540.18
22.2	3359.56
22.22	3269.25
22.24	3178.94
22.26	3142.81
22.28	3449.87
22.3	3847.24
22.32	3648.55
22.34	3756.93
22.36	3702.74
22.38	3377.62
22.4	3305.37
22.42	3377.62
22.44	3865.3
22.46	3323.44
22.48	3124.75
22.5	3612.43
22.52	3341.5
22.54	3323.44
22.56	3106.69
22.58	3558.24
22.6	3413.75
22.62	3377.62
22.64	3630.49
22.66	3901.42
22.68	3485.99
22.7	3160.88
22.72	3973.67
22.74	3377.62
22.76	3197
22.78	3684.68
22.8	3359.56
22.82	3504.06
22.84	3233.12
22.86	3305.37
22.88	3540.18
22.9	3702.74
22.92	3720.8
22.94	3793.05
22.96	3251.19
22.98	3341.5
23	3467.93
23.02	3359.56
23.04	3756.93
23.06	3504.06
23.08	3413.75
23.1	3413.75
23.12	3178.94
23.14	3142.81
23.16	3341.5
23.18	3269.25
23.2	3106.69
23.22	3540.18
23.24	3793.05
23.26	3449.87
23.28	3287.31
23.3	3305.37
23.32	3377.62
23.34	3467.93
23.36	3305.37
23.38	3215.06
23.4	2835.76
23.42	3233.12
23.44	3287.31
23.46	3377.62
23.48	3287.31
23.5	2980.25
23.52	3323.44
23.54	3323.44
23.56	3359.56
23.58	3540.18
23.6	3630.49
23.62	3359.56
23.64	3215.06
23.66	3178.94
23.68	3305.37
23.7	3124.75
23.72	2727.38
23.74	3016.38
23.76	3269.25
23.78	3323.44
23.8	3558.24
23.82	3233.12
23.84	2980.25
23.86	3630.49
23.88	3124.75
23.9	3684.68
23.92	3738.86
23.94	3774.99
23.96	4027.86
23.98	3287.31
24	3449.87
24.02	3160.88
24.04	3576.31
24.06	3395.68
24.08	3449.87
24.1	3684.68
24.12	3233.12
24.14	3106.69
24.16	3413.75
24.18	3449.87
24.2	3233.12
24.22	3287.31
24.24	3160.88
24.26	3233.12
24.28	3106.69
24.3	2926.07
24.32	3178.94
24.34	2908.01
24.36	2745.45
24.38	3178.94
24.4	3449.87
24.42	3142.81
24.44	3106.69
24.46	2944.13
24.48	3124.75
24.5	3178.94
24.52	3449.87
24.54	2510.64
24.56	3142.81
24.58	2582.89
24.6	3106.69
24.62	3305.37
24.64	3124.75
24.66	2980.25
24.68	2492.58
24.7	3160.88
24.72	2763.51
24.74	2528.7
24.76	2763.51
24.78	3088.63
24.8	2853.82
24.82	2980.25
24.84	2944.13
24.86	2637.07
24.88	3034.44
24.9	2944.13
24.92	2619.01
24.94	2835.76
24.96	2799.63
24.98	2745.45
25	2763.51
25.02	2564.82
25.04	3016.38
25.06	2691.26
25.08	2745.45
25.1	3016.38
25.12	2817.69
25.14	2691.26
25.16	2673.2
25.18	2853.82
25.2	2817.69
25.22	2763.51
25.24	2673.2
25.26	2871.88
25.28	2727.38
25.3	2456.45
25.32	2510.64
25.34	2709.32
25.36	2582.89
25.38	2546.76
25.4	2745.45
25.42	2420.33
25.44	2619.01
25.46	2311.95
25.48	2944.13
25.5	2673.2
25.52	3449.87
25.54	2926.07
25.56	2546.76
25.58	2691.26
25.6	2474.51
25.62	2853.82
25.64	2745.45
25.66	2908.01
25.68	2781.57
25.7	2582.89
25.72	2944.13
25.74	2944.13
25.76	2853.82
25.78	2799.63
25.8	2600.95
25.82	2582.89
25.84	3088.63
25.86	3197
25.88	2438.39
25.9	2926.07
25.92	3251.19
25.94	2727.38
25.96	3431.81
25.98	3811.11
26	3215.06
26.02	3431.81
26.04	3323.44
26.06	3215.06
26.08	3124.75
26.1	3233.12
26.12	3576.31
26.14	3160.88
26.16	3160.88
26.18	3287.31
26.2	2944.13
26.22	2745.45
26.24	2709.32
26.26	2691.26
26.28	2637.07
26.3	2582.89
26.32	2293.89
26.34	2474.51
26.36	2077.15
26.38	2619.01
26.4	2582.89
26.42	2546.76
26.44	2420.33
26.46	2564.82
26.48	2438.39
26.5	2492.58
26.52	2564.82
26.54	2167.46
26.56	2781.57
26.58	2366.14
26.6	2221.64
26.62	2366.14
26.64	2203.58
26.66	2022.96
26.68	2420.33
26.7	2293.89
26.72	2637.07
26.74	2275.83
26.76	2366.14
26.78	2366.14
26.8	2167.46
26.82	2492.58
26.84	2348.08
26.86	2763.51
26.88	2257.77
26.9	2311.95
26.92	2167.46
26.94	1950.71
26.96	2528.7
26.98	2456.45
27	2221.64
27.02	2582.89
27.04	2239.71
27.06	2348.08
27.08	2691.26
27.1	2348.08
27.12	2113.27
27.14	2853.82
27.16	2456.45
27.18	2564.82
27.2	2022.96
27.22	2095.21
27.24	2131.33
27.26	2619.01
27.28	2113.27
27.3	2330.02
27.32	2077.15
27.34	2330.02
27.36	2293.89
27.38	2402.27
27.4	2095.21
27.42	2149.4
27.44	2456.45
27.46	2655.14
27.48	2185.52
27.5	1950.71
27.52	2221.64
27.54	2203.58
27.56	2149.4
27.58	2348.08
27.6	2077.15
27.62	2366.14
27.64	2221.64
27.66	2167.46
27.68	1950.71
27.7	1589.47
27.72	2564.82
27.74	2420.33
27.76	1806.21
27.78	2131.33
27.8	2564.82
27.82	2492.58
27.84	2619.01
27.86	2311.95
27.88	2059.08
27.9	2131.33
27.92	2275.83
27.94	2420.33
27.96	2113.27
27.98	2131.33
28	1914.59
28.02	2239.71
28.04	2366.14
28.06	2022.96
28.08	2546.76
28.1	2474.51
28.12	2402.27
28.14	2492.58
28.16	2059.08
28.18	2059.08
28.2	2366.14
28.22	1842.34
28.24	2167.46
28.26	1950.71
28.28	2077.15
28.3	1842.34
28.32	2113.27
28.34	2366.14
28.36	2059.08
28.38	2185.52
28.4	2203.58
28.42	2330.02
28.44	1986.84
28.46	2059.08
28.48	2095.21
28.5	2113.27
28.52	1733.97
28.54	1986.84
28.56	2113.27
28.58	2637.07
28.6	1914.59
28.62	2095.21
28.64	2167.46
28.66	2131.33
28.68	2348.08
28.7	1896.53
28.72	1770.09
28.74	2149.4
28.76	2131.33
28.78	1842.34
28.8	2149.4
28.82	2167.46
28.84	1896.53
28.86	2041.02
28.88	1986.84
28.9	1824.28
28.92	2239.71
28.94	2257.77
28.96	1806.21
28.98	1986.84
29	1860.4
29.02	1860.4
29.04	2041.02
29.06	2095.21
29.08	2022.96
29.1	2004.9
29.12	1860.4
29.14	2366.14
29.16	1914.59
29.18	1878.46
29.2	2402.27
29.22	2004.9
29.24	1950.71
29.26	1932.65
29.28	1914.59
29.3	2275.83
29.32	2077.15
29.34	2203.58
29.36	2185.52
29.38	2420.33
29.4	2257.77
29.42	2293.89
29.44	2167.46
29.46	1950.71
29.48	2113.27
29.5	1661.72
29.52	1860.4
29.54	1679.78
29.56	1914.59
29.58	2095.21
29.6	1986.84
29.62	1914.59
29.64	1932.65
29.66	2041.02
29.68	2004.9
29.7	1896.53
29.72	2059.08
29.74	1625.59
29.76	1968.77
29.78	1517.22
29.8	1914.59
29.82	2022.96
29.84	1535.28
29.86	1842.34
29.88	1986.84
29.9	2022.96
29.92	1968.77
29.94	2095.21
29.96	1806.21
29.98	1697.84
30	2095.21
30.02	1968.77
30.04	1824.28
30.06	1842.34
30.08	1986.84
30.1	1589.47
30.12	1752.03
30.14	1770.09
30.16	2059.08
30.18	1643.66
30.2	1968.77
30.22	1878.46
30.24	1679.78
30.26	1553.34
30.28	1842.34
30.3	2022.96
30.32	1986.84
30.34	1625.59
30.36	1968.77
30.38	1806.21
30.4	1697.84
30.42	1950.71
30.44	1986.84
30.46	1860.4
30.48	1860.4
30.5	1589.47
30.52	1553.34
30.54	1914.59
30.56	1697.84
30.58	1788.15
30.6	2041.02
30.62	1824.28
30.64	1661.72
30.66	2004.9
30.68	1715.9
30.7	1896.53
30.72	1607.53
30.74	1932.65
30.76	1824.28
30.78	1679.78
30.8	1770.09
30.82	1661.72
30.84	1878.46
30.86	1697.84
30.88	1806.21
30.9	1426.91
30.92	1390.79
30.94	1661.72
30.96	2077.15
30.98	1679.78
31	1553.34
31.02	1860.4
31.04	1679.78
31.06	1661.72
31.08	1390.79
31.1	1661.72
31.12	1607.53
31.14	1824.28
31.16	1607.53
31.18	1770.09
31.2	1878.46
31.22	2041.02
31.24	1589.47
31.26	1481.1
31.28	1715.9
31.3	1589.47
31.32	1733.97
31.34	1733.97
31.36	1553.34
31.38	1625.59
31.4	1300.47
31.42	1824.28
31.44	1896.53
31.46	1986.84
31.48	1463.03
31.5	1517.22
31.52	1643.66
31.54	1860.4
31.56	1788.15
31.58	1715.9
31.6	1517.22
31.62	1661.72
31.64	1571.41
31.66	1752.03
31.68	1643.66
31.7	1715.9
31.72	1788.15
31.74	1914.59
31.76	1896.53
31.78	1607.53
31.8	1733.97
31.82	1607.53
31.84	1679.78
31.86	1679.78
31.88	1372.72
31.9	1752.03
31.92	1553.34
31.94	1661.72
31.96	1932.65
31.98	1968.77
32	1463.03
32.02	1932.65
32.04	1914.59
32.06	1860.4
32.08	1481.1
32.1	1661.72
32.12	1354.66
32.14	1607.53
32.16	1535.28
32.18	1463.03
32.2	1354.66
32.22	1625.59
32.24	1607.53
32.26	1390.79
32.28	1246.29
32.3	1625.59
32.32	1752.03
32.34	1806.21
32.36	1463.03
32.38	1463.03
32.4	1968.77
32.42	1282.41
32.44	1426.91
32.46	1625.59
32.48	1300.47
32.5	1589.47
32.52	1499.16
32.54	1535.28
32.56	1553.34
32.58	1571.41
32.6	1553.34
32.62	1535.28
32.64	1788.15
32.66	1752.03
32.68	1824.28
32.7	1625.59
32.72	1282.41
32.74	1517.22
32.76	1535.28
32.78	1300.47
32.8	1372.72
32.82	1535.28
32.84	1426.91
32.86	1444.97
32.88	1715.9
32.9	1788.15
32.92	1770.09
32.94	1733.97
32.96	1679.78
32.98	1679.78
33	1390.79
33.02	1535.28
33.04	1752.03
33.06	1571.41
33.08	1083.73
33.1	1426.91
33.12	1625.59
33.14	1372.72
33.16	1589.47
33.18	1426.91
33.2	1318.54
33.22	1607.53
33.24	1336.6
33.26	1300.47
33.28	1752.03
33.3	1607.53
33.32	1463.03
33.34	1372.72
33.36	1661.72
33.38	1372.72
33.4	1264.35
33.42	1444.97
33.44	1426.91
33.46	1589.47
33.48	1300.47
33.5	1499.16
33.52	2041.02
33.54	1481.1
33.56	1336.6
33.58	1300.47
33.6	1390.79
33.62	1372.72
33.64	1246.29
33.66	1372.72
33.68	1607.53
33.7	1336.6
33.72	1354.66
33.74	1643.66
33.76	1481.1
33.78	1463.03
33.8	1444.97
33.82	1408.85
33.84	1481.1
33.86	1264.35
33.88	1300.47
33.9	1210.16
33.92	1246.29
33.94	1643.66
33.96	1463.03
33.98	1137.92
34	1246.29
34.02	1354.66
34.04	1571.41
34.06	1589.47
34.08	1770.09
34.1	1463.03
34.12	1390.79
34.14	1986.84
34.16	1390.79
34.18	1444.97
34.2	1481.1
34.22	1535.28
34.24	1625.59
34.26	1553.34
34.28	1643.66
34.3	1770.09
34.32	1607.53
34.34	1390.79
34.36	1517.22
34.38	1246.29
34.4	1282.41
34.42	1408.85
34.44	1228.23
34.46	1444.97
34.48	1336.6
34.5	1571.41
34.52	1192.1
34.54	1553.34
34.56	1228.23
34.58	1300.47
34.6	1625.59
34.62	1481.1
34.64	1174.04
34.66	1661.72
34.68	1192.1
34.7	1174.04
34.72	1282.41
34.74	1372.72
34.76	1571.41
34.78	1119.85
34.8	1228.23
34.82	1444.97
34.84	1499.16
34.86	1336.6
34.88	1426.91
34.9	1336.6
34.92	1174.04
34.94	1336.6
34.96	1426.91
34.98	1517.22
35	1444.97
35.02	1517.22
35.04	1499.16
35.06	1264.35
35.08	1228.23
35.1	1192.1
35.12	1390.79
35.14	1264.35
35.16	1318.54
35.18	1210.16
35.2	1354.66
35.22	975.356
35.24	1408.85
35.26	1137.92
35.28	1481.1
35.3	1354.66
35.32	1065.67
35.34	1155.98
35.36	1318.54
35.38	1174.04
35.4	1517.22
35.42	1499.16
35.44	1372.72
35.46	1354.66
35.48	1499.16
35.5	1553.34
35.52	1354.66
35.54	1011.48
35.56	1336.6
35.58	1354.66
35.6	1481.1
35.62	1354.66
35.64	1499.16
35.66	1282.41
35.68	1426.91
35.7	1607.53
35.72	1499.16
35.74	1553.34
35.76	1372.72
35.78	1137.92
35.8	1444.97
35.82	1318.54
35.84	1318.54
35.86	1210.16
35.88	1390.79
35.9	1300.47
35.92	1246.29
35.94	1444.97
35.96	1390.79
35.98	1300.47
36	903.107
36.02	1210.16
36.04	1354.66
36.06	1282.41
36.08	1210.16
36.1	1426.91
36.12	1318.54
36.14	1174.04
36.16	1192.1
36.18	1264.35
36.2	1444.97
36.22	1336.6
36.24	1408.85
36.26	1372.72
36.28	1065.67
36.3	1101.79
36.32	975.356
36.34	1264.35
36.36	1119.85
36.38	1733.97
36.4	1408.85
36.42	1318.54
36.44	903.107
36.46	1571.41
36.48	1264.35
36.5	993.418
36.52	1408.85
36.54	957.294
36.56	1192.1
36.58	1047.6
36.6	1155.98
36.62	921.169
36.64	1137.92
36.66	1210.16
36.68	1264.35
36.7	1553.34
36.72	1246.29
36.74	1336.6
36.76	1282.41
36.78	1155.98
36.8	1228.23
36.82	1264.35
36.84	1228.23
36.86	939.232
36.88	993.418
36.9	1264.35
36.92	1444.97
36.94	1155.98
36.96	1372.72
36.98	1137.92
37	1264.35
37.02	1155.98
37.04	1155.98
37.06	1282.41
37.08	1246.29
37.1	1192.1
37.12	1264.35
37.14	1228.23
37.16	1192.1
37.18	1047.6
37.2	1101.79
37.22	1119.85
37.24	1444.97
37.26	1300.47
37.28	1481.1
37.3	1246.29
37.32	1065.67
37.34	1264.35
37.36	1372.72
37.38	1499.16
37.4	1264.35
37.42	1300.47
37.44	1336.6
37.46	1174.04
37.48	1210.16
37.5	1101.79
37.52	1300.47
37.54	1137.92
37.56	939.232
37.58	1119.85
37.6	921.169
37.62	1318.54
37.64	1119.85
37.66	1210.16
37.68	1047.6
37.7	1101.79
37.72	1155.98
37.74	1029.54
37.76	1137.92
37.78	848.921
37.8	1174.04
37.82	1155.98
37.84	1119.85
37.86	1101.79
37.88	1119.85
37.9	1354.66
37.92	1318.54
37.94	1155.98
37.96	1083.73
37.98	993.418
38	1264.35
38.02	1137.92
38.04	1210.16
38.06	1192.1
38.08	1372.72
38.1	1174.04
38.12	1336.6
38.14	1264.35
38.16	1463.03
38.18	1174.04
38.2	1300.47
38.22	1174.04
38.24	1083.73
38.26	1246.29
38.28	1029.54
38.3	1210.16
38.32	1137.92
38.34	1137.92
38.36	1011.48
38.38	1011.48
38.4	1264.35
38.42	1119.85
38.44	1047.6
38.46	1155.98
38.48	1354.66
38.5	1372.72
38.52	1029.54
38.54	1282.41
38.56	1101.79
38.58	1264.35
38.6	1047.6
38.62	1264.35
38.64	993.418
38.66	1408.85
38.68	1119.85
38.7	1047.6
38.72	1137.92
38.74	1119.85
38.76	1300.47
38.78	1174.04
38.8	939.232
38.82	1210.16
38.84	1192.1
38.86	1155.98
38.88	975.356
38.9	1137.92
38.92	1083.73
38.94	993.418
38.96	1264.35
38.98	975.356
39	1047.6
39.02	1101.79
39.04	1101.79
39.06	1210.16
39.08	1155.98
39.1	1047.6
39.12	1372.72
39.14	1047.6
39.16	1029.54
39.18	1210.16
39.2	1228.23
39.22	1011.48
39.24	1174.04
39.26	1246.29
39.28	1210.16
39.3	1174.04
39.32	1174.04
39.34	1029.54
39.36	1047.6
39.38	1137.92
39.4	1174.04
39.42	1228.23
39.44	1444.97
39.46	1029.54
39.48	1192.1
39.5	1246.29
39.52	1155.98
39.54	1011.48
39.56	1011.48
39.58	1155.98
39.6	1174.04
39.62	957.294
39.64	1137.92
39.66	1192.1
39.68	939.232
39.7	903.107
39.72	1119.85
39.74	957.294
39.76	1011.48
39.78	1372.72
39.8	1155.98
39.82	1300.47
39.84	1155.98
39.86	1318.54
39.88	1228.23
39.9	1083.73
39.92	885.045
39.94	1047.6
39.96	1029.54
39.98	1192.1
40	1047.6
40.02	1083.73
40.04	848.921
40.06	1336.6
40.08	1210.16
40.1	1210.16
40.12	1228.23
40.14	939.232
40.16	1065.67
40.18	1192.1
40.2	1119.85
40.22	1011.48
40.24	1029.54
40.26	1408.85
40.28	1426.91
40.3	1065.67
40.32	1065.67
40.34	1029.54
40.36	1155.98
40.38	1192.1
40.4	993.418
40.42	1137.92
40.44	1137.92
40.46	1083.73
40.48	1101.79
40.5	1101.79
40.52	993.418
40.54	1029.54
40.56	1065.67
40.58	1300.47
40.6	1155.98
40.62	1282.41
40.64	1047.6
40.66	1029.54
40.68	1174.04
40.7	1119.85
40.72	1137.92
40.74	830.859
40.76	1246.29
40.78	1282.41
40.8	1174.04
40.82	1264.35
40.84	1119.85
40.86	1101.79
40.88	1192.1
40.9	1300.47
40.92	1101.79
40.94	1083.73
40.96	1029.54
40.98	1137.92
41	1246.29
41.02	1011.48
41.04	1264.35
41.06	1155.98
41.08	1101.79
41.1	939.232
41.12	1047.6
41.14	1047.6
41.16	1101.79
41.18	939.232
41.2	1155.98
41.22	1083.73
41.24	939.232
41.26	1029.54
41.28	1137.92
41.3	939.232
41.32	975.356
41.34	1011.48
41.36	1155.98
41.38	1210.16
41.4	1065.67
41.42	1083.73
41.44	1011.48
41.46	1065.67
41.48	1101.79
41.5	957.294
41.52	1083.73
41.54	1101.79
41.56	1047.6
41.58	1065.67
41.6	1192.1
41.62	1083.73
41.64	903.107
41.66	885.045
41.68	1101.79
41.7	957.294
41.72	1390.79
41.74	1083.73
41.76	1101.79
41.78	1155.98
41.8	1390.79
41.82	1137.92
41.84	1101.79
41.86	1282.41
41.88	1101.79
41.9	993.418
41.92	993.418
41.94	1155.98
41.96	1282.41
41.98	921.169
42	1083.73
42.02	975.356
42.04	1137.92
42.06	975.356
42.08	1083.73
42.1	1065.67
42.12	866.983
42.14	1354.66
42.16	1155.98
42.18	993.418
42.2	1065.67
42.22	1101.79
42.24	903.107
42.26	812.797
42.28	993.418
42.3	921.169
42.32	1228.23
42.34	812.797
42.36	1101.79
42.38	1101.79
42.4	1047.6
42.42	1155.98
42.44	1047.6
42.46	903.107
42.48	939.232
42.5	1264.35
42.52	1155.98
42.54	1083.73
42.56	975.356
42.58	848.921
42.6	1155.98
42.62	1137.92
42.64	866.983
42.66	1318.54
42.68	1210.16
42.7	975.356
42.72	921.169
42.74	957.294
42.76	1119.85
42.78	957.294
42.8	975.356
42.82	1047.6
42.84	758.61
42.86	957.294
42.88	1282.41
42.9	975.356
42.92	1155.98
42.94	1029.54
42.96	885.045
42.98	1065.67
43	812.797
43.02	1246.29
43.04	1119.85
43.06	1029.54
43.08	1011.48
43.1	1137.92
43.12	1029.54
43.14	1119.85
43.16	1083.73
43.18	812.797
43.2	848.921
43.22	975.356
43.24	939.232
43.26	993.418
43.28	921.169
43.3	830.859
43.32	1101.79
43.34	921.169
43.36	1119.85
43.38	1119.85
43.4	1119.85
43.42	993.418
43.44	830.859
43.46	939.232
43.48	1137.92
43.5	1083.73
43.52	885.045
43.54	957.294
43.56	776.672
43.58	975.356
43.6	1029.54
43.62	1083.73
43.64	1119.85
43.66	1065.67
43.68	722.486
43.7	866.983
43.72	885.045
43.74	776.672
43.76	939.232
43.78	1029.54
43.8	830.859
43.82	1083.73
43.84	1210.16
43.86	903.107
43.88	939.232
43.9	1155.98
43.92	1101.79
43.94	1228.23
43.96	1029.54
43.98	1047.6
44	866.983
44.02	903.107
44.04	993.418
44.06	1083.73
44.08	1228.23
44.1	1119.85
44.12	848.921
44.14	866.983
44.16	957.294
44.18	1336.6
44.2	1029.54
44.22	1047.6
44.24	957.294
44.26	939.232
44.28	1210.16
44.3	1083.73
44.32	957.294
44.34	740.548
44.36	1029.54
44.38	885.045
44.4	794.734
44.42	903.107
44.44	1083.73
44.46	885.045
44.48	866.983
44.5	939.232
44.52	758.61
44.54	812.797
44.56	866.983
44.58	1011.48
44.6	993.418
44.62	830.859
44.64	848.921
44.66	939.232
44.68	1065.67
44.7	939.232
44.72	1065.67
44.74	903.107
44.76	1137.92
44.78	794.734
44.8	975.356
44.82	848.921
44.84	1083.73
44.86	776.672
44.88	1083.73
44.9	1011.48
44.92	1065.67
44.94	921.169
44.96	1011.48
44.98	1065.67
45	903.107
45.02	903.107
45.04	1011.48
45.06	1047.6
45.08	758.61
45.1	1029.54
45.12	1119.85
45.14	1011.48
45.16	903.107
45.18	939.232
45.2	957.294
45.22	921.169
45.24	632.175
45.26	1065.67
45.28	993.418
45.3	1137.92
45.32	957.294
45.34	957.294
45.36	1047.6
45.38	866.983
45.4	866.983
45.42	885.045
45.44	812.797
45.46	668.299
45.48	812.797
45.5	794.734
45.52	903.107
45.54	921.169
45.56	1119.85
45.58	1011.48
45.6	830.859
45.62	1192.1
45.64	740.548
45.66	975.356
45.68	885.045
45.7	848.921
45.72	866.983
45.74	1047.6
45.76	1047.6
45.78	921.169
45.8	848.921
45.82	686.362
45.84	957.294
45.86	848.921
45.88	812.797
45.9	812.797
45.92	812.797
45.94	957.294
45.96	903.107
45.98	740.548
46	975.356
46.02	740.548
46.04	1192.1
46.06	1011.48
46.08	975.356
46.1	1029.54
46.12	921.169
46.14	939.232
46.16	686.362
46.18	830.859
46.2	885.045
46.22	1101.79
46.24	885.045
46.26	866.983
46.28	776.672
46.3	559.927
46.32	1011.48
46.34	866.983
46.36	722.486
46.38	939.232
46.4	722.486
46.42	939.232
46.44	632.175
46.46	939.232
46.48	975.356
46.5	921.169
46.52	993.418
46.54	686.362
46.56	686.362
46.58	1047.6
46.6	903.107
46.62	885.045
46.64	885.045
46.66	704.424
46.68	614.113
46.7	776.672
46.72	812.797
46.74	903.107
46.76	921.169
46.78	1011.48
46.8	1011.48
46.82	866.983
46.84	885.045
46.86	848.921
46.88	993.418
46.9	794.734
46.92	1155.98
46.94	1065.67
46.96	939.232
46.98	866.983
47	740.548
47.02	668.299
47.04	885.045
47.06	668.299
47.08	903.107
47.1	921.169
47.12	1083.73
47.14	885.045
47.16	903.107
47.18	1246.29
47.2	740.548
47.22	776.672
47.24	885.045
47.26	812.797
47.28	812.797
47.3	957.294
47.32	1011.48
47.34	632.175
47.36	957.294
47.38	812.797
47.4	668.299
47.42	776.672
47.44	885.045
47.46	541.864
47.48	794.734
47.5	921.169
47.52	812.797
47.54	903.107
47.56	848.921
47.58	866.983
47.6	740.548
47.62	1101.79
47.64	848.921
47.66	704.424
47.68	939.232
47.7	776.672
47.72	866.983
47.74	939.232
47.76	577.989
47.78	903.107
47.8	866.983
47.82	812.797
47.84	758.61
47.86	812.797
47.88	740.548
47.9	794.734
47.92	812.797
47.94	885.045
47.96	885.045
47.98	794.734
48	866.983
48.02	776.672
48.04	523.802
48.06	885.045
48.08	848.921
48.1	650.237
48.12	758.61
48.14	794.734
48.16	812.797
48.18	794.734
48.2	830.859
48.22	866.983
48.24	866.983
48.26	758.61
48.28	903.107
48.3	794.734
48.32	830.859
48.34	577.989
48.36	885.045
48.38	758.61
48.4	650.237
48.42	704.424
48.44	794.734
48.46	596.051
48.48	577.989
48.5	740.548
48.52	812.797
48.54	1047.6
48.56	939.232
48.58	686.362
48.6	722.486
48.62	903.107
48.64	939.232
48.66	885.045
48.68	866.983
48.7	758.61
48.72	758.61
48.74	722.486
48.76	704.424
48.78	740.548
48.8	704.424
48.82	848.921
48.84	957.294
48.86	577.989
48.88	812.797
48.9	903.107
48.92	740.548
48.94	704.424
48.96	758.61
48.98	614.113
49	830.859
49.02	577.989
49.04	614.113
49.06	523.802
49.08	686.362
49.1	866.983
49.12	758.61
49.14	740.548
49.16	632.175
49.18	650.237
49.2	596.051
49.22	776.672
49.24	830.859
49.26	740.548
49.28	686.362
49.3	975.356
49.32	830.859
49.34	903.107
49.36	794.734
49.38	650.237
49.4	722.486
49.42	794.734
49.44	794.734
49.46	632.175
49.48	848.921
49.5	559.927
49.52	704.424
49.54	668.299
49.56	740.548
49.58	722.486
49.6	812.797
49.62	650.237
49.64	451.554
49.66	704.424
49.68	704.424
49.7	704.424
49.72	650.237
49.74	794.734
49.76	848.921
49.78	704.424
49.8	758.61
49.82	758.61
49.84	704.424
49.86	866.983
49.88	722.486
49.9	740.548
49.92	686.362
49.94	650.237
49.96	794.734
49.98	686.362
50	758.61
50.02	704.424
50.04	650.237
50.06	885.045
50.08	722.486
50.1	903.107
50.12	812.797
50.14	740.548
50.16	596.051
50.18	704.424
50.2	1011.48
50.22	577.989
50.24	541.864
50.26	921.169
50.28	704.424
50.3	776.672
50.32	469.616
50.34	776.672
50.36	848.921
50.38	939.232
50.4	776.672
50.42	668.299
50.44	776.672
50.46	668.299
50.48	632.175
50.5	848.921
50.52	596.051
50.54	794.734
50.56	903.107
50.58	758.61
50.6	559.927
50.62	559.927
50.64	740.548
50.66	541.864
50.68	885.045
50.7	686.362
50.72	866.983
50.74	596.051
50.76	686.362
50.78	559.927
50.8	577.989
50.82	577.989
50.84	614.113
50.86	650.237
50.88	740.548
50.9	469.616
50.92	866.983
50.94	740.548
50.96	614.113
50.98	758.61
51	812.797
51.02	686.362
51.04	650.237
51.06	740.548
51.08	596.051
51.1	668.299
51.12	632.175
51.14	668.299
51.16	776.672
51.18	758.61
51.2	668.299
51.22	614.113
51.24	758.61
51.26	577.989
51.28	776.672
51.3	668.299
51.32	704.424
51.34	812.797
51.36	704.424
51.38	505.74
51.4	830.859
51.42	614.113
51.44	577.989
51.46	541.864
51.48	596.051
51.5	632.175
51.52	740.548
51.54	668.299
51.56	451.554
51.58	541.864
51.6	523.802
51.62	794.734
51.64	686.362
51.66	903.107
51.68	668.299
51.7	740.548
51.72	686.362
51.74	903.107
51.76	903.107
51.78	722.486
51.8	758.61
51.82	559.927
51.84	704.424
51.86	758.61
51.88	614.113
51.9	596.051
51.92	541.864
51.94	776.672
51.96	722.486
51.98	650.237
52	650.237
52.02	668.299
52.04	559.927
52.06	812.797
52.08	848.921
52.1	596.051
52.12	559.927
52.14	704.424
52.16	650.237
52.18	577.989
52.2	632.175
52.22	722.486
52.24	614.113
52.26	541.864
52.28	325.119
52.3	523.802
52.32	523.802
52.34	704.424
52.36	614.113
52.38	614.113
52.4	830.859
52.42	632.175
52.44	614.113
52.46	686.362
52.48	523.802
52.5	523.802
52.52	704.424
52.54	704.424
52.56	577.989
52.58	722.486
52.6	776.672
52.62	614.113
52.64	668.299
52.66	686.362
52.68	776.672
52.7	776.672
52.72	758.61
52.74	740.548
52.76	523.802
52.78	523.802
52.8	776.672
52.82	596.051
52.84	758.61
52.86	523.802
52.88	596.051
52.9	614.113
52.92	596.051
52.94	541.864
52.96	668.299
52.98	596.051
53	704.424
53.02	740.548
53.04	632.175
53.06	577.989
53.08	848.921
53.1	758.61
53.12	722.486
53.14	523.802
53.16	776.672
53.18	614.113
53.2	469.616
53.22	632.175
53.24	668.299
53.26	668.299
53.28	577.989
53.3	668.299
53.32	577.989
53.34	361.243
53.36	505.74
53.38	632.175
53.4	668.299
53.42	740.548
53.44	704.424
53.46	722.486
53.48	397.367
53.5	686.362
53.52	559.927
53.54	668.299
53.56	776.672
53.58	577.989
53.6	794.734
53.62	577.989
53.64	848.921
53.66	794.734
53.68	740.548
53.7	704.424
53.72	632.175
53.74	668.299
53.76	559.927
53.78	523.802
53.8	505.74
53.82	740.548
53.84	812.797
53.86	794.734
53.88	577.989
53.9	487.678
53.92	686.362
53.94	523.802
53.96	541.864
53.98	577.989
54	722.486
54.02	686.362
54.04	596.051
54.06	632.175
54.08	975.356
54.1	487.678
54.12	704.424
54.14	830.859
54.16	812.797
54.18	505.74
54.2	577.989
54.22	776.672
54.24	848.921
54.26	596.051
54.28	686.362
54.3	523.802
54.32	541.864
54.34	650.237
54.36	487.678
54.38	577.989
54.4	614.113
54.42	469.616
54.44	632.175
54.46	758.61
54.48	577.989
54.5	686.362
54.52	722.486
54.54	614.113
54.56	668.299
54.58	487.678
54.6	559.927
54.62	704.424
54.64	523.802
54.66	577.989
54.68	577.989
54.7	704.424
54.72	541.864
54.74	686.362
54.76	451.554
54.78	704.424
54.8	740.548
54.82	668.299
54.84	451.554
54.86	704.424
54.88	668.299
54.9	632.175
54.92	650.237
54.94	451.554
54.96	487.678
54.98	812.797
55	722.486
55.02	776.672
55.04	559.927
55.06	686.362
55.08	668.299
55.1	866.983
55.12	686.362
55.14	541.864
55.16	632.175
55.18	632.175
55.2	668.299
55.22	523.802
55.24	523.802
55.26	650.237
55.28	650.237
55.3	505.74
55.32	704.424
55.34	722.486
55.36	704.424
55.38	577.989
55.4	614.113
55.42	704.424
55.44	596.051
55.46	686.362
55.48	559.927
55.5	397.367
55.52	559.927
55.54	596.051
55.56	523.802
55.58	614.113
55.6	650.237
55.62	451.554
55.64	614.113
55.66	451.554
55.68	577.989
55.7	523.802
55.72	541.864
55.74	776.672
55.76	704.424
55.78	505.74
55.8	577.989
55.82	686.362
55.84	704.424
55.86	614.113
55.88	577.989
55.9	541.864
55.92	577.989
55.94	686.362
55.96	541.864
55.98	577.989
56	541.864
56.02	614.113
56.04	614.113
56.06	650.237
56.08	668.299
56.1	614.113
56.12	577.989
56.14	415.429
56.16	614.113
56.18	577.989
56.2	433.492
56.22	505.74
56.24	523.802
56.26	577.989
56.28	632.175
56.3	451.554
56.32	704.424
56.34	559.927
56.36	559.927
56.38	740.548
56.4	596.051
56.42	596.051
56.44	523.802
56.46	487.678
56.48	722.486
56.5	650.237
56.52	632.175
56.54	596.051
56.56	433.492
56.58	505.74
56.6	541.864
56.62	812.797
56.64	541.864
56.66	596.051
56.68	704.424
56.7	614.113
56.72	451.554
56.74	523.802
56.76	632.175
56.78	596.051
56.8	523.802
56.82	596.051
56.84	668.299
56.86	632.175
56.88	577.989
56.9	776.672
56.92	577.989
56.94	577.989
56.96	505.74
56.98	577.989
57	559.927
57.02	541.864
57.04	596.051
57.06	451.554
57.08	559.927
57.1	650.237
57.12	812.797
57.14	632.175
57.16	596.051
57.18	596.051
57.2	541.864
57.22	252.87
57.24	487.678
57.26	722.486
57.28	361.243
57.3	523.802
57.32	505.74
57.34	559.927
57.36	722.486
57.38	487.678
57.4	704.424
57.42	541.864
57.44	577.989
57.46	614.113
57.48	523.802
57.5	541.864
57.52	451.554
57.54	632.175
57.56	632.175
57.58	379.305
57.6	433.492
57.62	632.175
57.64	650.237
57.66	596.051
57.68	596.051
57.7	487.678
57.72	469.616
57.74	541.864
57.76	397.367
57.78	541.864
57.8	451.554
57.82	451.554
57.84	469.616
57.86	559.927
57.88	415.429
57.9	596.051
57.92	541.864
57.94	487.678
57.96	541.864
57.98	523.802
58	758.61
58.02	614.113
58.04	451.554
58.06	577.989
58.08	433.492
58.1	469.616
58.12	704.424
58.14	523.802
58.16	397.367
58.18	596.051
58.2	523.802
58.22	650.237
58.24	650.237
58.26	451.554
58.28	469.616
58.3	758.61
58.32	523.802
58.34	668.299
58.36	469.616
58.38	487.678
58.4	577.989
58.42	361.243
58.44	614.113
58.46	541.864
58.48	668.299
58.5	505.74
58.52	379.305
58.54	487.678
58.56	523.802
58.58	523.802
58.6	415.429
58.62	541.864
58.64	577.989
58.66	596.051
58.68	632.175
58.7	559.927
58.72	614.113
58.74	668.299
58.76	505.74
58.78	505.74
58.8	541.864
58.82	614.113
58.84	559.927
58.86	505.74
58.88	668.299
58.9	451.554
58.92	577.989
58.94	668.299
58.96	541.864
58.98	469.616
59	415.429
59.02	577.989
59.04	614.113
59.06	577.989
59.08	469.616
59.1	596.051
59.12	632.175
59.14	487.678
59.16	505.74
59.18	487.678
59.2	433.492
59.22	523.802
59.24	487.678
59.26	577.989
59.28	650.237
59.3	487.678
59.32	614.113
59.34	650.237
59.36	650.237
59.38	596.051
59.4	415.429
59.42	577.989
59.44	596.051
59.46	433.492
59.48	541.864
59.5	650.237
59.52	469.616
59.54	433.492
59.56	559.927
59.58	523.802
59.6	541.864
59.62	433.492
59.64	650.237
59.66	596.051
59.68	379.305
59.7	469.616
59.72	614.113
59.74	541.864
59.76	361.243
59.78	487.678
59.8	469.616
59.82	361.243
59.84	577.989
59.86	469.616
59.88	433.492
59.9	505.74
59.92	505.74
59.94	668.299
59.96	523.802
59.98	722.486
60	469.616
